PE FL                   SPECTRUM    ASCII       PEDS        1.60        
  -1
0124DI~4.SP
19/01/24
10:14:19.00
19/01/24
10:14:19.00


548.500000
1









LS45
245.00
10.00
10.00
SCAN
1
16
100
100
0
600
0
1
0
1
7
ON
435 365 
0 0 0
#HDR
-1
-1
#GR
NM
INT 
0.00002384185791015625
0.0
230.000000
0.500000
638
8
999.999000
2.153000
#DATA
230.000000	5.973000   
230.500000	6.374000   
231.000000	6.874000   
231.500000	8.911000   
232.000000	10.156000  
232.500000	12.275000  
233.000000	14.857000  
233.500000	18.328000  
234.000000	21.001000  
234.500000	26.119000  
235.000000	27.411000  
235.500000	34.384000  
236.000000	38.569000  
236.500000	41.852000  
237.000000	47.210000  
237.500000	54.398000  
238.000000	59.720000  
238.500000	66.540000  
239.000000	73.024000  
239.500000	77.186000  
240.000000	86.715000  
240.500000	91.182000  
241.000000	96.928000  
241.500000	101.675000 
242.000000	107.550000 
242.500000	111.247000 
243.000000	114.796000 
243.500000	117.870000 
244.000000	121.044000 
244.500000	126.628000 
245.000000	125.976000 
245.500000	127.314000 
246.000000	127.555000 
246.500000	127.629000 
247.000000	126.246000 
247.500000	121.086000 
248.000000	119.529000 
248.500000	116.081000 
249.000000	110.197000 
249.500000	102.064000 
250.000000	102.784000 
250.500000	95.049000  
251.000000	90.796000  
251.500000	82.018000  
252.000000	76.614000  
252.500000	74.409000  
253.000000	69.270000  
253.500000	64.531000  
254.000000	61.289000  
254.500000	58.326000  
255.000000	52.790000  
255.500000	50.716000  
256.000000	48.862000  
256.500000	46.944000  
257.000000	47.112000  
257.500000	46.290000  
258.000000	46.144000  
258.500000	47.215000  
259.000000	49.048000  
259.500000	51.933000  
260.000000	54.685000  
260.500000	57.387000  
261.000000	62.270000  
261.500000	67.212000  
262.000000	67.965000  
262.500000	70.607000  
263.000000	74.706999  
263.500000	76.075999  
264.000000	80.182000  
264.500000	83.242000  
265.000000	85.300000  
265.500000	87.700999  
266.000000	91.252000  
266.500000	92.154000  
267.000000	91.643000  
267.500000	91.453999  
268.000000	91.979000  
268.500000	92.441999  
269.000000	91.796000  
269.500000	90.762000  
270.000000	85.096999  
270.500000	83.888000  
271.000000	79.906000  
271.500000	76.649000  
272.000000	76.321000  
272.500000	71.221999  
273.000000	65.133000  
273.500000	60.236000  
274.000000	57.063000  
274.500000	52.691000  
275.000000	49.358000  
275.500000	45.122000  
276.000000	39.773000  
276.500000	36.303000  
277.000000	32.722000  
277.500000	27.402000  
278.000000	24.174000  
278.500000	21.271000  
279.000000	19.876000  
279.500000	16.560000  
280.000000	13.768000  
280.500000	12.094000  
281.000000	9.609000   
281.500000	8.111000   
282.000000	7.276000   
282.500000	6.361000   
283.000000	5.310000   
283.500000	4.782000   
284.000000	3.805000   
284.500000	4.212000   
285.000000	4.048000   
285.500000	3.065000   
286.000000	3.337000   
286.500000	2.974000   
287.000000	2.826000   
287.500000	2.676000   
288.000000	2.560000   
288.500000	2.496000   
289.000000	2.618000   
289.500000	2.544000   
290.000000	2.313000   
290.500000	2.396000   
291.000000	2.715000   
291.500000	2.601000   
292.000000	2.408000   
292.500000	2.622000   
293.000000	2.640000   
293.500000	2.960000   
294.000000	3.167000   
294.500000	2.821000   
295.000000	2.525000   
295.500000	3.076000   
296.000000	3.197000   
296.500000	2.833000   
297.000000	3.032000   
297.500000	2.955000   
298.000000	2.712000   
298.500000	2.740000   
299.000000	2.766000   
299.500000	3.094000   
300.000000	3.408000   
300.500000	2.995000   
301.000000	2.801000   
301.500000	2.920000   
302.000000	2.853000   
302.500000	2.584000   
303.000000	2.990000   
303.500000	2.376000   
304.000000	2.528000   
304.500000	3.033000   
305.000000	2.952000   
305.500000	2.876000   
306.000000	3.165000   
306.500000	2.741000   
307.000000	2.937000   
307.500000	2.932000   
308.000000	3.005000   
308.500000	2.983000   
309.000000	3.131000   
309.500000	2.911000   
310.000000	3.051000   
310.500000	3.264000   
311.000000	2.964000   
311.500000	2.812000   
312.000000	2.440000   
312.500000	2.533000   
313.000000	2.968000   
313.500000	3.545000   
314.000000	2.999000   
314.500000	2.794000   
315.000000	3.017000   
315.500000	2.701000   
316.000000	2.584000   
316.500000	2.557000   
317.000000	3.060000   
317.500000	2.960000   
318.000000	3.053000   
318.500000	2.987000   
319.000000	3.204000   
319.500000	2.904000   
320.000000	2.899000   
320.500000	2.951000   
321.000000	2.538000   
321.500000	2.989000   
322.000000	2.816000   
322.500000	2.910000   
323.000000	2.710000   
323.500000	3.344000   
324.000000	2.998000   
324.500000	3.156000   
325.000000	3.021000   
325.500000	2.977000   
326.000000	3.026000   
326.500000	2.833000   
327.000000	3.035000   
327.500000	3.185000   
328.000000	3.479000   
328.500000	3.206000   
329.000000	3.012000   
329.500000	2.775000   
330.000000	2.981000   
330.500000	2.695000   
331.000000	2.660000   
331.500000	2.823000   
332.000000	2.627000   
332.500000	2.908000   
333.000000	3.016000   
333.500000	3.018000   
334.000000	2.625000   
334.500000	2.704000   
335.000000	2.785000   
335.500000	2.770000   
336.000000	2.577000   
336.500000	3.307000   
337.000000	3.150000   
337.500000	2.620000   
338.000000	2.667000   
338.500000	3.293000   
339.000000	3.033000   
339.500000	3.019000   
340.000000	2.527000   
340.500000	2.656000   
341.000000	2.569000   
341.500000	2.922000   
342.000000	2.885000   
342.500000	2.434000   
343.000000	2.980000   
343.500000	2.753000   
344.000000	2.280000   
344.500000	2.583000   
345.000000	2.707000   
345.500000	2.822000   
346.000000	2.688000   
346.500000	2.590000   
347.000000	2.785000   
347.500000	3.057000   
348.000000	3.106000   
348.500000	2.784000   
349.000000	2.847000   
349.500000	2.967000   
350.000000	2.751000   
350.500000	2.873000   
351.000000	2.563000   
351.500000	2.705000   
352.000000	2.783000   
352.500000	2.900000   
353.000000	2.973000   
353.500000	2.881000   
354.000000	2.419000   
354.500000	2.541000   
355.000000	2.449000   
355.500000	2.640000   
356.000000	2.989000   
356.500000	2.878000   
357.000000	2.819000   
357.500000	2.500000   
358.000000	2.598000   
358.500000	2.724000   
359.000000	2.496000   
359.500000	2.666000   
360.000000	2.776000   
360.500000	2.672000   
361.000000	3.021000   
361.500000	2.638000   
362.000000	2.891000   
362.500000	2.792000   
363.000000	2.645000   
363.500000	2.562000   
364.000000	2.436000   
364.500000	3.094000   
365.000000	2.620000   
365.500000	2.589000   
366.000000	2.418000   
366.500000	2.435000   
367.000000	2.545000   
367.500000	2.607000   
368.000000	2.711000   
368.500000	2.848000   
369.000000	2.668000   
369.500000	2.285000   
370.000000	2.386000   
370.500000	2.153000   
371.000000	2.356000   
371.500000	2.476000   
372.000000	2.592000   
372.500000	3.159000   
373.000000	2.626000   
373.500000	2.773000   
374.000000	2.415000   
374.500000	2.507000   
375.000000	2.436000   
375.500000	2.628000   
376.000000	2.590000   
376.500000	2.771000   
377.000000	2.961000   
377.500000	2.763000   
378.000000	2.722000   
378.500000	2.475000   
379.000000	2.747000   
379.500000	3.046000   
380.000000	2.633000   
380.500000	2.832000   
381.000000	2.701000   
381.500000	2.588000   
382.000000	3.064000   
382.500000	2.739000   
383.000000	2.716000   
383.500000	2.833000   
384.000000	2.406000   
384.500000	2.755000   
385.000000	2.803000   
385.500000	3.024000   
386.000000	2.894000   
386.500000	2.571000   
387.000000	2.662000   
387.500000	2.651000   
388.000000	2.607000   
388.500000	2.381000   
389.000000	2.505000   
389.500000	2.573000   
390.000000	2.367000   
390.500000	2.566000   
391.000000	3.037000   
391.500000	3.044000   
392.000000	2.721000   
392.500000	3.006000   
393.000000	2.824000   
393.500000	2.547000   
394.000000	2.587000   
394.500000	3.045000   
395.000000	2.911000   
395.500000	2.800000   
396.000000	2.662000   
396.500000	2.937000   
397.000000	2.690000   
397.500000	2.606000   
398.000000	3.389000   
398.500000	2.815000   
399.000000	3.279000   
399.500000	2.969000   
400.000000	2.440000   
400.500000	2.657000   
401.000000	2.469000   
401.500000	2.765000   
402.000000	2.669000   
402.500000	2.987000   
403.000000	2.702000   
403.500000	3.344000   
404.000000	3.101000   
404.500000	2.908000   
405.000000	2.712000   
405.500000	2.621000   
406.000000	2.858000   
406.500000	3.070000   
407.000000	2.969000   
407.500000	2.517000   
408.000000	2.782000   
408.500000	3.176000   
409.000000	2.890000   
409.500000	2.614000   
410.000000	3.081000   
410.500000	3.165000   
411.000000	3.480000   
411.500000	3.243000   
412.000000	3.125000   
412.500000	2.895000   
413.000000	2.754000   
413.500000	2.772000   
414.000000	3.038000   
414.500000	3.203000   
415.000000	2.977000   
415.500000	2.922000   
416.000000	3.108000   
416.500000	3.124000   
417.000000	2.988000   
417.500000	3.152000   
418.000000	3.227000   
418.500000	2.732000   
419.000000	3.061000   
419.500000	3.396000   
420.000000	2.513000   
420.500000	2.558000   
421.000000	3.090000   
421.500000	3.205000   
422.000000	3.420000   
422.500000	3.565000   
423.000000	3.227000   
423.500000	3.220000   
424.000000	3.024000   
424.500000	3.471000   
425.000000	3.070000   
425.500000	3.634000   
426.000000	3.236000   
426.500000	3.219000   
427.000000	3.220000   
427.500000	2.715000   
428.000000	3.088000   
428.500000	2.977000   
429.000000	3.230000   
429.500000	3.317000   
430.000000	3.084000   
430.500000	3.575000   
431.000000	3.469000   
431.500000	2.990000   
432.000000	3.132000   
432.500000	3.095000   
433.000000	3.349000   
433.500000	3.359000   
434.000000	3.304000   
434.500000	3.712000   
435.000000	3.293000   
435.500000	3.197000   
436.000000	3.442000   
436.500000	3.195000   
437.000000	3.418000   
437.500000	3.423000   
438.000000	3.236000   
438.500000	3.264000   
439.000000	3.279000   
439.500000	3.644000   
440.000000	3.509000   
440.500000	3.946000   
441.000000	3.767000   
441.500000	4.049000   
442.000000	3.560000   
442.500000	3.474000   
443.000000	3.881000   
443.500000	3.726000   
444.000000	3.777000   
444.500000	4.004000   
445.000000	3.853000   
445.500000	3.859000   
446.000000	3.992000   
446.500000	4.194000   
447.000000	3.947000   
447.500000	4.135000   
448.000000	4.262000   
448.500000	4.542000   
449.000000	4.772000   
449.500000	4.407000   
450.000000	5.172000   
450.500000	5.583000   
451.000000	5.054000   
451.500000	5.611000   
452.000000	5.039000   
452.500000	5.262000   
453.000000	5.755000   
453.500000	6.274000   
454.000000	6.433000   
454.500000	6.038000   
455.000000	5.781000   
455.500000	6.124000   
456.000000	6.115000   
456.500000	6.823000   
457.000000	7.191000   
457.500000	7.344000   
458.000000	7.156000   
458.500000	7.202000   
459.000000	7.196000   
459.500000	7.299000   
460.000000	7.385000   
460.500000	8.368000   
461.000000	8.367000   
461.500000	8.457000   
462.000000	9.218999   
462.500000	9.186999   
463.000000	9.960000   
463.500000	11.482000  
464.000000	12.531000  
464.500000	14.016000  
465.000000	16.713000  
465.500000	18.567000  
466.000000	20.597000  
466.500000	21.820000  
467.000000	26.432000  
467.500000	29.997000  
468.000000	34.489000  
468.500000	38.892000  
469.000000	43.452000  
469.500000	52.212000  
470.000000	60.153000  
470.500000	67.019000  
471.000000	77.171000  
471.500000	86.227999  
472.000000	97.691999  
472.500000	111.609000 
473.000000	127.403000 
473.500000	140.526000 
474.000000	161.494000 
474.500000	178.614000 
475.000000	200.075000 
475.500000	228.436000 
476.000000	251.867000 
476.500000	272.990000 
477.000000	297.404000 
477.500000	320.076000 
478.000000	352.924000 
478.500000	383.713000 
479.000000	411.040000 
479.500000	441.090000 
480.000000	472.768000 
480.500000	499.135000 
481.000000	538.545000 
481.500000	565.756000 
482.000000	590.457000 
482.500000	634.045000 
483.000000	661.280999 
483.500000	706.106000 
484.000000	740.275000 
484.500000	780.275000 
485.000000	801.405000 
485.500000	833.982000 
486.000000	866.333999 
486.500000	901.136000 
487.000000	920.003000 
487.500000	948.343000 
488.000000	963.951000 
488.500000	992.107999 
489.000000	999.999000 
489.500000	999.999000 
490.000000	999.999000 
490.500000	999.999000 
491.000000	999.999000 
491.500000	999.999000 
492.000000	999.999000 
492.500000	999.999000 
493.000000	999.999000 
493.500000	999.999000 
494.000000	999.999000 
494.500000	999.999000 
495.000000	999.999000 
495.500000	999.999000 
496.000000	999.999000 
496.500000	981.706000 
497.000000	940.576000 
497.500000	905.006000 
498.000000	874.495000 
498.500000	830.383000 
499.000000	795.010000 
499.500000	738.398000 
500.000000	704.504000 
500.500000	659.447000 
501.000000	628.534000 
501.500000	576.083000 
502.000000	529.436000 
502.500000	483.971000 
503.000000	443.933000 
503.500000	411.086000 
504.000000	361.459000 
504.500000	328.288000 
505.000000	278.799000 
505.500000	249.921000 
506.000000	220.490000 
506.500000	198.234000 
507.000000	172.595000 
507.500000	158.516000 
508.000000	141.837000 
508.500000	128.831000 
509.000000	118.113000 
509.500000	105.061000 
510.000000	96.104000  
510.500000	87.983000  
511.000000	82.025000  
511.500000	76.834999  
512.000000	73.750000  
512.500000	67.054000  
513.000000	64.331999  
513.500000	59.333000  
514.000000	58.256000  
514.500000	56.739000  
515.000000	57.232000  
515.500000	57.606000  
516.000000	56.001000  
516.500000	57.873000  
517.000000	60.712000  
517.500000	62.184000  
518.000000	65.652000  
518.500000	69.443000  
519.000000	75.108000  
519.500000	81.044000  
520.000000	85.271000  
520.500000	84.444999  
521.000000	93.441999  
521.500000	98.947999  
522.000000	108.421000 
522.500000	112.960000 
523.000000	117.218000 
523.500000	124.659000 
524.000000	129.994000 
524.500000	132.029000 
525.000000	139.825000 
525.500000	144.923000 
526.000000	151.318000 
526.500000	158.964000 
527.000000	163.114000 
527.500000	169.502000 
528.000000	175.428000 
528.500000	181.171000 
529.000000	184.220000 
529.500000	190.924000 
530.000000	197.019000 
530.500000	205.751000 
531.000000	208.342000 
531.500000	215.004000 
532.000000	219.609000 
532.500000	224.223000 
533.000000	228.242000 
533.500000	234.643000 
534.000000	235.762000 
534.500000	238.039000 
535.000000	242.984000 
535.500000	246.486000 
536.000000	249.710000 
536.500000	248.786000 
537.000000	248.245000 
537.500000	253.605000 
538.000000	255.356000 
538.500000	252.470000 
539.000000	253.000000 
539.500000	245.382000 
540.000000	246.598000 
540.500000	239.474000 
541.000000	234.904000 
541.500000	227.982000 
542.000000	223.308000 
542.500000	213.969000 
543.000000	206.286000 
543.500000	193.397000 
544.000000	187.483000 
544.500000	173.625000 
545.000000	165.168000 
545.500000	156.337000 
546.000000	149.488000 
546.500000	135.387000 
547.000000	127.558000 
547.500000	119.107000 
548.000000	112.806000 
548.500000	98.691999  

