PE FL                   SPECTRUM    ASCII       PEDS        1.60        
  -1
0124SC~3.SP
19/01/24
13:11:39.00
19/01/24
13:11:39.00


548.500000
1









LS45
330.00
10.00
10.00
SCAN
1
16
100
100
0
600
0
1
0
1
7
ON
550 545 
0 0 0
#HDR
-1
-1
#GR
NM
INT 
0.00002384185791015625
0.0
230.000000
0.500000
638
8
999.999000
0.513000
#DATA
230.000000	0.675000   
230.500000	0.777000   
231.000000	0.700000   
231.500000	0.703000   
232.000000	0.675000   
232.500000	0.528000   
233.000000	0.513000   
233.500000	0.685000   
234.000000	0.565999   
234.500000	0.687999   
235.000000	0.719000   
235.500000	0.705000   
236.000000	0.718000   
236.500000	0.755000   
237.000000	0.668000   
237.500000	0.743000   
238.000000	0.662000   
238.500000	0.521000   
239.000000	0.581000   
239.500000	0.732000   
240.000000	0.827000   
240.500000	0.791000   
241.000000	0.741000   
241.500000	0.620000   
242.000000	0.809000   
242.500000	0.754000   
243.000000	0.760000   
243.500000	0.781000   
244.000000	0.654000   
244.500000	0.886000   
245.000000	0.696000   
245.500000	0.623000   
246.000000	0.778000   
246.500000	0.621000   
247.000000	0.733000   
247.500000	0.882000   
248.000000	0.889000   
248.500000	1.004000   
249.000000	1.079000   
249.500000	1.014000   
250.000000	0.924000   
250.500000	0.738000   
251.000000	0.904000   
251.500000	0.875000   
252.000000	0.933000   
252.500000	0.990000   
253.000000	0.912000   
253.500000	1.024000   
254.000000	0.881000   
254.500000	1.003000   
255.000000	0.952000   
255.500000	1.092000   
256.000000	1.125000   
256.500000	1.171000   
257.000000	0.973000   
257.500000	0.836000   
258.000000	0.999000   
258.500000	1.170000   
259.000000	1.008000   
259.500000	0.881000   
260.000000	0.975000   
260.500000	1.003000   
261.000000	0.940999   
261.500000	1.055000   
262.000000	1.099000   
262.500000	1.027000   
263.000000	0.965000   
263.500000	1.111000   
264.000000	1.080000   
264.500000	1.091000   
265.000000	1.133000   
265.500000	1.062000   
266.000000	1.063000   
266.500000	1.223000   
267.000000	1.214000   
267.500000	1.314000   
268.000000	1.387000   
268.500000	1.285000   
269.000000	1.327000   
269.500000	1.305000   
270.000000	1.203000   
270.500000	1.129000   
271.000000	1.436000   
271.500000	1.347000   
272.000000	1.449000   
272.500000	1.400000   
273.000000	1.235000   
273.500000	1.384000   
274.000000	1.351000   
274.500000	1.556000   
275.000000	1.443000   
275.500000	1.435000   
276.000000	1.372000   
276.500000	1.509000   
277.000000	1.417000   
277.500000	1.597000   
278.000000	1.372000   
278.500000	1.589000   
279.000000	1.624000   
279.500000	1.790000   
280.000000	2.114000   
280.500000	1.785000   
281.000000	1.713000   
281.500000	1.794000   
282.000000	1.683000   
282.500000	1.847000   
283.000000	1.686000   
283.500000	2.052000   
284.000000	2.075000   
284.500000	1.926000   
285.000000	2.182000   
285.500000	2.031000   
286.000000	2.418000   
286.500000	2.347000   
287.000000	2.537000   
287.500000	2.440000   
288.000000	2.489000   
288.500000	2.575000   
289.000000	2.591000   
289.500000	2.691000   
290.000000	2.926000   
290.500000	2.737000   
291.000000	2.718000   
291.500000	2.779000   
292.000000	2.993000   
292.500000	2.829000   
293.000000	3.275000   
293.500000	3.250000   
294.000000	3.264000   
294.500000	3.495000   
295.000000	3.385000   
295.500000	3.447000   
296.000000	3.655000   
296.500000	4.094000   
297.000000	4.053000   
297.500000	3.969000   
298.000000	4.034000   
298.500000	4.506000   
299.000000	4.739000   
299.500000	4.600000   
300.000000	4.814000   
300.500000	4.970000   
301.000000	5.420000   
301.500000	5.454000   
302.000000	5.391000   
302.500000	5.740000   
303.000000	5.935000   
303.500000	6.320000   
304.000000	6.499000   
304.500000	6.603000   
305.000000	6.833000   
305.500000	7.066000   
306.000000	8.125999   
306.500000	8.292999   
307.000000	9.321999   
307.500000	10.875000  
308.000000	12.769000  
308.500000	15.338000  
309.000000	19.041000  
309.500000	24.313000  
310.000000	30.233000  
310.500000	40.176000  
311.000000	50.534000  
311.500000	65.160000  
312.000000	79.150000  
312.500000	97.882000  
313.000000	117.525000 
313.500000	145.374000 
314.000000	175.745000 
314.500000	213.711000 
315.000000	255.351000 
315.500000	312.150000 
316.000000	362.256000 
316.500000	412.810000 
317.000000	471.473000 
317.500000	532.646000 
318.000000	652.797000 
318.500000	723.984000 
319.000000	792.800000 
319.500000	881.905000 
320.000000	957.905999 
320.500000	999.999000 
321.000000	999.999000 
321.500000	999.999000 
322.000000	999.999000 
322.500000	999.999000 
323.000000	999.999000 
323.500000	999.999000 
324.000000	999.999000 
324.500000	999.999000 
325.000000	999.999000 
325.500000	999.999000 
326.000000	999.999000 
326.500000	999.999000 
327.000000	999.999000 
327.500000	999.999000 
328.000000	999.999000 
328.500000	999.999000 
329.000000	999.999000 
329.500000	999.999000 
330.000000	999.999000 
330.500000	999.999000 
331.000000	999.999000 
331.500000	999.999000 
332.000000	999.999000 
332.500000	999.999000 
333.000000	999.999000 
333.500000	999.999000 
334.000000	882.948000 
334.500000	871.039000 
335.000000	732.554000 
335.500000	722.074000 
336.000000	587.830000 
336.500000	577.439000 
337.000000	440.340000 
337.500000	431.700000 
338.000000	330.007000 
338.500000	322.554000 
339.000000	282.819000 
339.500000	235.032000 
340.000000	195.529000 
340.500000	161.642000 
341.000000	135.975000 
341.500000	109.832000 
342.000000	86.623000  
342.500000	71.928000  
343.000000	60.628000  
343.500000	49.867000  
344.000000	40.524000  
344.500000	34.619000  
345.000000	29.267000  
345.500000	26.128000  
346.000000	23.914000  
346.500000	23.273000  
347.000000	22.577000  
347.500000	22.171000  
348.000000	22.592000  
348.500000	22.745000  
349.000000	23.042000  
349.500000	24.022000  
350.000000	25.313000  
350.500000	26.182000  
351.000000	28.529000  
351.500000	29.234000  
352.000000	30.910000  
352.500000	32.381000  
353.000000	34.390000  
353.500000	35.899000  
354.000000	38.408000  
354.500000	40.305000  
355.000000	43.910000  
355.500000	48.293000  
356.000000	50.779000  
356.500000	52.758000  
357.000000	55.339000  
357.500000	59.272000  
358.000000	63.527000  
358.500000	67.227999  
359.000000	68.626000  
359.500000	72.333000  
360.000000	77.818000  
360.500000	81.854000  
361.000000	84.318000  
361.500000	86.671000  
362.000000	90.031000  
362.500000	92.569999  
363.000000	96.587000  
363.500000	97.950000  
364.000000	100.036000 
364.500000	104.082000 
365.000000	105.216000 
365.500000	107.320000 
366.000000	109.821000 
366.500000	109.897000 
367.000000	112.395000 
367.500000	112.654000 
368.000000	112.731000 
368.500000	114.827000 
369.000000	114.931000 
369.500000	114.609000 
370.000000	112.911000 
370.500000	112.769000 
371.000000	112.143000 
371.500000	111.508000 
372.000000	110.173000 
372.500000	107.319000 
373.000000	108.224000 
373.500000	105.619000 
374.000000	103.048000 
374.500000	99.836000  
375.000000	98.744000  
375.500000	96.310000  
376.000000	96.203999  
376.500000	90.407000  
377.000000	92.717000  
377.500000	90.873000  
378.000000	89.061000  
378.500000	86.488000  
379.000000	84.613000  
379.500000	82.185000  
380.000000	80.795000  
380.500000	79.581000  
381.000000	78.789000  
381.500000	79.556000  
382.000000	76.874000  
382.500000	75.203999  
383.000000	75.556000  
383.500000	75.773000  
384.000000	75.390000  
384.500000	73.944000  
385.000000	74.524000  
385.500000	75.215000  
386.000000	73.605999  
386.500000	75.278000  
387.000000	74.150000  
387.500000	75.117000  
388.000000	73.715000  
388.500000	74.895000  
389.000000	75.799000  
389.500000	75.761000  
390.000000	76.029000  
390.500000	77.541000  
391.000000	77.703999  
391.500000	77.962999  
392.000000	78.665000  
392.500000	78.705000  
393.000000	79.293000  
393.500000	79.675000  
394.000000	81.438999  
394.500000	79.889000  
395.000000	80.496000  
395.500000	79.508000  
396.000000	80.292000  
396.500000	81.346000  
397.000000	83.547000  
397.500000	84.669000  
398.000000	84.105999  
398.500000	84.387000  
399.000000	83.955000  
399.500000	86.171000  
400.000000	85.980999  
400.500000	86.611999  
401.000000	86.604000  
401.500000	87.145000  
402.000000	85.845000  
402.500000	88.111000  
403.000000	88.506000  
403.500000	88.500000  
404.000000	88.944000  
404.500000	90.631000  
405.000000	89.217000  
405.500000	89.393000  
406.000000	89.699000  
406.500000	91.212000  
407.000000	91.008000  
407.500000	90.774000  
408.000000	90.916000  
408.500000	90.367000  
409.000000	92.021000  
409.500000	90.608000  
410.000000	91.025000  
410.500000	91.691999  
411.000000	92.166000  
411.500000	93.196000  
412.000000	91.926000  
412.500000	91.346999  
413.000000	91.366000  
413.500000	89.660000  
414.000000	90.489000  
414.500000	90.310000  
415.000000	91.105999  
415.500000	92.837999  
416.000000	89.866000  
416.500000	89.926000  
417.000000	89.558000  
417.500000	90.378000  
418.000000	90.973000  
418.500000	90.906000  
419.000000	89.678000  
419.500000	90.168000  
420.000000	89.833000  
420.500000	90.042000  
421.000000	90.259000  
421.500000	86.928000  
422.000000	89.363000  
422.500000	87.673000  
423.000000	87.727999  
423.500000	89.048000  
424.000000	87.656000  
424.500000	88.494000  
425.000000	85.678000  
425.500000	86.033000  
426.000000	84.122000  
426.500000	84.663000  
427.000000	84.432000  
427.500000	85.288000  
428.000000	85.138000  
428.500000	84.659000  
429.000000	85.529000  
429.500000	85.373000  
430.000000	84.471999  
430.500000	84.336000  
431.000000	84.093999  
431.500000	84.262000  
432.000000	83.366000  
432.500000	82.724999  
433.000000	82.667000  
433.500000	82.648000  
434.000000	83.034000  
434.500000	81.818000  
435.000000	82.947000  
435.500000	81.828000  
436.000000	83.360000  
436.500000	82.104000  
437.000000	81.831000  
437.500000	80.197000  
438.000000	80.330000  
438.500000	79.574000  
439.000000	80.896000  
439.500000	80.397000  
440.000000	80.565000  
440.500000	79.322000  
441.000000	80.432000  
441.500000	78.889000  
442.000000	79.444000  
442.500000	79.238000  
443.000000	77.032000  
443.500000	78.215999  
444.000000	78.355000  
444.500000	78.406000  
445.000000	77.733000  
445.500000	75.551000  
446.000000	76.453999  
446.500000	75.861999  
447.000000	74.525000  
447.500000	73.592000  
448.000000	73.505000  
448.500000	71.866000  
449.000000	71.863000  
449.500000	70.730999  
450.000000	71.358999  
450.500000	70.331999  
451.000000	70.379000  
451.500000	69.608999  
452.000000	69.024000  
452.500000	69.214000  
453.000000	68.278000  
453.500000	68.223000  
454.000000	68.114999  
454.500000	66.852000  
455.000000	65.860000  
455.500000	65.361999  
456.000000	65.914000  
456.500000	65.962000  
457.000000	64.574000  
457.500000	63.985000  
458.000000	62.870000  
458.500000	62.700000  
459.000000	61.571000  
459.500000	61.724000  
460.000000	60.117000  
460.500000	58.605000  
461.000000	59.107000  
461.500000	58.789000  
462.000000	57.533000  
462.500000	57.602000  
463.000000	58.623000  
463.500000	57.104000  
464.000000	55.193000  
464.500000	55.227000  
465.000000	55.828000  
465.500000	55.227000  
466.000000	55.368000  
466.500000	56.404000  
467.000000	53.972000  
467.500000	52.252000  
468.000000	52.063000  
468.500000	51.112000  
469.000000	51.761000  
469.500000	51.503000  
470.000000	50.116000  
470.500000	49.869000  
471.000000	50.214000  
471.500000	49.823000  
472.000000	48.857000  
472.500000	49.500000  
473.000000	48.983000  
473.500000	46.793000  
474.000000	48.165000  
474.500000	46.871000  
475.000000	47.086000  
475.500000	46.330000  
476.000000	46.557000  
476.500000	46.429000  
477.000000	45.765000  
477.500000	43.965000  
478.000000	45.643000  
478.500000	45.703000  
479.000000	44.675000  
479.500000	44.234000  
480.000000	44.067000  
480.500000	43.093000  
481.000000	42.189000  
481.500000	42.684000  
482.000000	43.052000  
482.500000	41.549000  
483.000000	41.276000  
483.500000	40.855000  
484.000000	40.605000  
484.500000	41.342000  
485.000000	39.408000  
485.500000	39.252000  
486.000000	40.484000  
486.500000	39.886000  
487.000000	39.728000  
487.500000	39.307000  
488.000000	38.782000  
488.500000	38.371000  
489.000000	37.009000  
489.500000	36.609000  
490.000000	37.410000  
490.500000	37.446000  
491.000000	36.795000  
491.500000	35.684000  
492.000000	35.420000  
492.500000	35.553000  
493.000000	35.360000  
493.500000	34.480000  
494.000000	33.659000  
494.500000	33.646000  
495.000000	34.022000  
495.500000	33.349000  
496.000000	32.486000  
496.500000	32.576000  
497.000000	32.241000  
497.500000	31.681000  
498.000000	32.202000  
498.500000	31.391000  
499.000000	31.166000  
499.500000	31.241000  
500.000000	30.019000  
500.500000	30.448000  
501.000000	30.207000  
501.500000	29.336000  
502.000000	29.202000  
502.500000	29.635000  
503.000000	28.826000  
503.500000	27.883000  
504.000000	27.957000  
504.500000	28.535000  
505.000000	27.655000  
505.500000	27.420000  
506.000000	27.587000  
506.500000	28.243000  
507.000000	26.438000  
507.500000	26.789000  
508.000000	25.720000  
508.500000	25.043000  
509.000000	25.403000  
509.500000	25.582000  
510.000000	26.088000  
510.500000	25.025000  
511.000000	25.442000  
511.500000	25.089000  
512.000000	24.468000  
512.500000	23.498000  
513.000000	23.326000  
513.500000	22.758000  
514.000000	22.871000  
514.500000	23.238000  
515.000000	22.367000  
515.500000	22.532000  
516.000000	23.157000  
516.500000	22.838000  
517.000000	21.549000  
517.500000	22.397000  
518.000000	21.735000  
518.500000	21.662000  
519.000000	21.264000  
519.500000	21.200000  
520.000000	20.451000  
520.500000	19.798000  
521.000000	20.488000  
521.500000	20.874000  
522.000000	19.363000  
522.500000	19.343000  
523.000000	18.752000  
523.500000	18.541000  
524.000000	18.330000  
524.500000	19.028000  
525.000000	17.726000  
525.500000	17.667000  
526.000000	18.011000  
526.500000	17.186000  
527.000000	17.714000  
527.500000	18.109000  
528.000000	16.889000  
528.500000	16.883000  
529.000000	16.684000  
529.500000	16.541000  
530.000000	17.018000  
530.500000	16.477000  
531.000000	15.756000  
531.500000	15.774000  
532.000000	14.940000  
532.500000	15.117000  
533.000000	15.044000  
533.500000	15.099000  
534.000000	14.971000  
534.500000	15.114000  
535.000000	14.175000  
535.500000	13.985000  
536.000000	13.815000  
536.500000	13.262000  
537.000000	13.651000  
537.500000	13.409000  
538.000000	13.009000  
538.500000	12.461000  
539.000000	12.871000  
539.500000	13.108000  
540.000000	13.043000  
540.500000	12.449000  
541.000000	12.260000  
541.500000	12.501000  
542.000000	12.328000  
542.500000	12.262000  
543.000000	12.038000  
543.500000	11.479000  
544.000000	11.723000  
544.500000	11.762000  
545.000000	10.934000  
545.500000	10.753000  
546.000000	10.805000  
546.500000	11.197000  
547.000000	10.288000  
547.500000	10.662000  
548.000000	10.773000  
548.500000	10.098000  

