PE FL                   SPECTRUM    ASCII       PEDS        1.60        
  -1
01410B~1.SP
19/01/24
13:20:41.00
19/01/24
13:20:41.00


548.500000
1









LS45
390.00
10.00
10.00
SCAN
1
16
100
100
0
600
0
1
0
1
7
ON
550 545 
0 0 0
#HDR
-1
-1
#GR
NM
INT 
0.00002384185791015625
0.0
230.000000
0.500000
638
8
999.999000
0.231000
#DATA
230.000000	0.427000   
230.500000	0.339000   
231.000000	0.405000   
231.500000	0.411000   
232.000000	0.383000   
232.500000	0.359000   
233.000000	0.367000   
233.500000	0.339000   
234.000000	0.276000   
234.500000	0.284000   
235.000000	0.453000   
235.500000	0.350000   
236.000000	0.406000   
236.500000	0.396000   
237.000000	0.423000   
237.500000	0.300000   
238.000000	0.231000   
238.500000	0.325000   
239.000000	0.396000   
239.500000	0.394000   
240.000000	0.333000   
240.500000	0.263000   
241.000000	0.272000   
241.500000	0.347000   
242.000000	0.381000   
242.500000	0.330000   
243.000000	0.374000   
243.500000	0.380000   
244.000000	0.412000   
244.500000	0.437000   
245.000000	0.398000   
245.500000	0.290000   
246.000000	0.307000   
246.500000	0.253000   
247.000000	0.345000   
247.500000	0.467000   
248.000000	0.453000   
248.500000	0.459000   
249.000000	0.383000   
249.500000	0.365000   
250.000000	0.341000   
250.500000	0.436000   
251.000000	0.390000   
251.500000	0.370000   
252.000000	0.421000   
252.500000	0.390000   
253.000000	0.441000   
253.500000	0.414000   
254.000000	0.417000   
254.500000	0.424000   
255.000000	0.460000   
255.500000	0.481000   
256.000000	0.440000   
256.500000	0.517000   
257.000000	0.495000   
257.500000	0.413000   
258.000000	0.397000   
258.500000	0.385000   
259.000000	0.346000   
259.500000	0.347000   
260.000000	0.404000   
260.500000	0.429000   
261.000000	0.402000   
261.500000	0.344000   
262.000000	0.316000   
262.500000	0.490000   
263.000000	0.422000   
263.500000	0.391000   
264.000000	0.476000   
264.500000	0.500000   
265.000000	0.559000   
265.500000	0.532000   
266.000000	0.445000   
266.500000	0.511000   
267.000000	0.558000   
267.500000	0.442000   
268.000000	0.465000   
268.500000	0.547000   
269.000000	0.404000   
269.500000	0.411000   
270.000000	0.412000   
270.500000	0.436000   
271.000000	0.428000   
271.500000	0.374000   
272.000000	0.506000   
272.500000	0.406000   
273.000000	0.536000   
273.500000	0.616000   
274.000000	0.529000   
274.500000	0.506000   
275.000000	0.533000   
275.500000	0.521000   
276.000000	0.573000   
276.500000	0.711000   
277.000000	0.643000   
277.500000	0.531000   
278.000000	0.559000   
278.500000	0.493000   
279.000000	0.408000   
279.500000	0.501000   
280.000000	0.579000   
280.500000	0.533000   
281.000000	0.467000   
281.500000	0.555000   
282.000000	0.526000   
282.500000	0.468000   
283.000000	0.604000   
283.500000	0.590000   
284.000000	0.514000   
284.500000	0.549000   
285.000000	0.560000   
285.500000	0.542000   
286.000000	0.646000   
286.500000	0.486000   
287.000000	0.537000   
287.500000	0.529000   
288.000000	0.570000   
288.500000	0.537000   
289.000000	0.714000   
289.500000	0.595000   
290.000000	0.541000   
290.500000	0.632000   
291.000000	0.756000   
291.500000	0.635000   
292.000000	0.675000   
292.500000	0.640000   
293.000000	0.651000   
293.500000	0.704000   
294.000000	0.575000   
294.500000	0.500000   
295.000000	0.658000   
295.500000	0.742000   
296.000000	0.619000   
296.500000	0.542000   
297.000000	0.660000   
297.500000	0.709000   
298.000000	0.735000   
298.500000	0.723000   
299.000000	0.771000   
299.500000	0.649000   
300.000000	0.615000   
300.500000	0.722000   
301.000000	0.801000   
301.500000	0.779000   
302.000000	0.675000   
302.500000	0.753000   
303.000000	0.816999   
303.500000	0.966000   
304.000000	0.711000   
304.500000	0.876000   
305.000000	0.795000   
305.500000	0.717000   
306.000000	0.787000   
306.500000	0.864000   
307.000000	0.839000   
307.500000	0.749000   
308.000000	0.785000   
308.500000	0.914000   
309.000000	0.925000   
309.500000	0.933000   
310.000000	0.934000   
310.500000	0.874000   
311.000000	0.967000   
311.500000	0.968000   
312.000000	1.056000   
312.500000	1.098000   
313.000000	1.041000   
313.500000	0.973000   
314.000000	1.000000   
314.500000	0.856000   
315.000000	0.840000   
315.500000	0.862000   
316.000000	1.155000   
316.500000	1.005000   
317.000000	0.972000   
317.500000	1.136000   
318.000000	0.956000   
318.500000	1.028000   
319.000000	1.055000   
319.500000	0.949000   
320.000000	1.058000   
320.500000	0.972000   
321.000000	1.065000   
321.500000	1.077000   
322.000000	1.035000   
322.500000	1.191000   
323.000000	1.109000   
323.500000	1.157000   
324.000000	1.052000   
324.500000	1.074000   
325.000000	1.209000   
325.500000	1.191000   
326.000000	1.187000   
326.500000	1.277000   
327.000000	1.358000   
327.500000	1.300000   
328.000000	1.326000   
328.500000	1.422000   
329.000000	1.516000   
329.500000	1.561000   
330.000000	1.617000   
330.500000	1.521000   
331.000000	1.528000   
331.500000	1.584000   
332.000000	1.421000   
332.500000	1.433000   
333.000000	1.603000   
333.500000	1.683000   
334.000000	1.681000   
334.500000	1.562000   
335.000000	1.648000   
335.500000	1.750000   
336.000000	1.565000   
336.500000	1.889000   
337.000000	2.029000   
337.500000	1.943000   
338.000000	1.907000   
338.500000	2.087000   
339.000000	2.061000   
339.500000	2.188000   
340.000000	2.151000   
340.500000	2.350000   
341.000000	2.348000   
341.500000	2.494000   
342.000000	2.496000   
342.500000	2.511000   
343.000000	2.589000   
343.500000	2.722000   
344.000000	2.643000   
344.500000	2.589000   
345.000000	2.650000   
345.500000	2.710000   
346.000000	2.761000   
346.500000	2.946000   
347.000000	3.302000   
347.500000	3.060000   
348.000000	2.901000   
348.500000	3.226000   
349.000000	3.373000   
349.500000	3.420000   
350.000000	3.487000   
350.500000	3.918000   
351.000000	3.665000   
351.500000	3.672000   
352.000000	3.867000   
352.500000	3.912000   
353.000000	3.977000   
353.500000	4.146000   
354.000000	4.298000   
354.500000	4.202000   
355.000000	4.605000   
355.500000	4.901000   
356.000000	4.828000   
356.500000	5.139000   
357.000000	4.955000   
357.500000	5.226000   
358.000000	5.177000   
358.500000	5.151000   
359.000000	5.305000   
359.500000	5.578000   
360.000000	5.836000   
360.500000	5.900000   
361.000000	6.475000   
361.500000	6.476000   
362.000000	6.657000   
362.500000	6.457000   
363.000000	6.846000   
363.500000	7.208000   
364.000000	7.492000   
364.500000	7.940000   
365.000000	8.541000   
365.500000	9.375000   
366.000000	10.417000  
366.500000	12.416000  
367.000000	15.498000  
367.500000	18.311000  
368.000000	23.612000  
368.500000	29.724000  
369.000000	39.606000  
369.500000	48.563000  
370.000000	65.035000  
370.500000	79.837000  
371.000000	103.224000 
371.500000	125.124000 
372.000000	154.733000 
372.500000	184.558000 
373.000000	220.944000 
373.500000	264.663000 
374.000000	322.568000 
374.500000	374.656000 
375.000000	429.117000 
375.500000	491.325000 
376.000000	616.203000 
376.500000	686.393000 
377.000000	762.889000 
377.500000	774.879000 
378.000000	913.134000 
378.500000	924.303000 
379.000000	999.999000 
379.500000	999.999000 
380.000000	999.999000 
380.500000	999.999000 
381.000000	999.999000 
381.500000	999.999000 
382.000000	999.999000 
382.500000	999.999000 
383.000000	999.999000 
383.500000	999.999000 
384.000000	999.999000 
384.500000	999.999000 
385.000000	999.999000 
385.500000	999.999000 
386.000000	999.999000 
386.500000	999.999000 
387.000000	999.999000 
387.500000	999.999000 
388.000000	999.999000 
388.500000	999.999000 
389.000000	999.999000 
389.500000	999.999000 
390.000000	999.999000 
390.500000	999.999000 
391.000000	999.999000 
391.500000	999.999000 
392.000000	999.999000 
392.500000	999.999000 
393.000000	999.999000 
393.500000	999.999000 
394.000000	877.763000 
394.500000	866.019000 
395.000000	726.114000 
395.500000	715.032000 
396.000000	587.566000 
396.500000	574.612000 
397.000000	450.413000 
397.500000	440.589000 
398.000000	334.858000 
398.500000	326.226000 
399.000000	281.688000 
399.500000	233.831000 
400.000000	195.361000 
400.500000	160.058000 
401.000000	130.657000 
401.500000	107.171000 
402.000000	87.730000  
402.500000	71.473000  
403.000000	56.268000  
403.500000	47.612000  
404.000000	38.313000  
404.500000	32.608000  
405.000000	27.034000  
405.500000	24.459000  
406.000000	21.524000  
406.500000	19.708000  
407.000000	18.755000  
407.500000	17.978000  
408.000000	17.648000  
408.500000	17.764000  
409.000000	17.800000  
409.500000	18.015000  
410.000000	17.996000  
410.500000	19.048000  
411.000000	19.022000  
411.500000	19.617000  
412.000000	19.947000  
412.500000	19.591000  
413.000000	19.747000  
413.500000	20.144000  
414.000000	20.468000  
414.500000	21.232000  
415.000000	21.386000  
415.500000	21.396000  
416.000000	22.975000  
416.500000	22.720000  
417.000000	22.890000  
417.500000	23.272000  
418.000000	24.888000  
418.500000	24.925000  
419.000000	25.353000  
419.500000	25.017000  
420.000000	26.201000  
420.500000	26.790000  
421.000000	26.803000  
421.500000	27.783000  
422.000000	29.175000  
422.500000	29.255000  
423.000000	29.792000  
423.500000	29.795000  
424.000000	29.789000  
424.500000	31.065000  
425.000000	32.761000  
425.500000	33.266000  
426.000000	33.183000  
426.500000	34.058000  
427.000000	34.911000  
427.500000	35.881000  
428.000000	37.713000  
428.500000	37.689000  
429.000000	39.157000  
429.500000	39.825000  
430.000000	41.274000  
430.500000	42.693000  
431.000000	44.234000  
431.500000	45.312000  
432.000000	47.151000  
432.500000	47.608000  
433.000000	48.495000  
433.500000	50.605000  
434.000000	52.159000  
434.500000	53.128000  
435.000000	55.348000  
435.500000	55.448000  
436.000000	57.098000  
436.500000	59.235000  
437.000000	61.494000  
437.500000	63.284000  
438.000000	64.152000  
438.500000	64.774000  
439.000000	67.518000  
439.500000	68.889000  
440.000000	68.575000  
440.500000	69.581999  
441.000000	70.812000  
441.500000	72.794000  
442.000000	74.924000  
442.500000	75.473000  
443.000000	75.238000  
443.500000	76.034000  
444.000000	77.607000  
444.500000	77.182000  
445.000000	76.947999  
445.500000	76.163000  
446.000000	76.474000  
446.500000	77.568000  
447.000000	77.230999  
447.500000	76.520000  
448.000000	75.548000  
448.500000	75.825000  
449.000000	74.376000  
449.500000	73.011000  
450.000000	72.678000  
450.500000	71.410000  
451.000000	70.325999  
451.500000	68.527000  
452.000000	67.968000  
452.500000	66.758000  
453.000000	66.772000  
453.500000	63.908000  
454.000000	64.131000  
454.500000	64.930000  
455.000000	63.381000  
455.500000	62.082000  
456.000000	59.977000  
456.500000	58.590000  
457.000000	59.836000  
457.500000	58.751000  
458.000000	58.483000  
458.500000	58.201000  
459.000000	56.418000  
459.500000	54.652000  
460.000000	53.662000  
460.500000	55.121000  
461.000000	53.195000  
461.500000	52.747000  
462.000000	54.288000  
462.500000	52.246000  
463.000000	52.901000  
463.500000	50.656000  
464.000000	50.516000  
464.500000	50.279000  
465.000000	49.623000  
465.500000	50.253000  
466.000000	49.858000  
466.500000	49.771000  
467.000000	49.020000  
467.500000	48.824000  
468.000000	49.186000  
468.500000	48.628000  
469.000000	47.693000  
469.500000	48.197000  
470.000000	47.988000  
470.500000	47.713000  
471.000000	47.550000  
471.500000	48.059000  
472.000000	47.227000  
472.500000	46.484000  
473.000000	46.583000  
473.500000	46.397000  
474.000000	45.899000  
474.500000	46.573000  
475.000000	45.312000  
475.500000	46.732000  
476.000000	45.530000  
476.500000	45.365000  
477.000000	45.333000  
477.500000	44.848000  
478.000000	45.324000  
478.500000	43.987000  
479.000000	44.081000  
479.500000	43.632000  
480.000000	43.993000  
480.500000	43.714000  
481.000000	44.188000  
481.500000	43.609000  
482.000000	42.847000  
482.500000	43.803000  
483.000000	42.443000  
483.500000	41.848000  
484.000000	42.188000  
484.500000	42.123000  
485.000000	41.393000  
485.500000	41.950000  
486.000000	42.249000  
486.500000	40.796000  
487.000000	40.429000  
487.500000	39.661000  
488.000000	41.179000  
488.500000	40.356000  
489.000000	38.946000  
489.500000	38.871000  
490.000000	38.351000  
490.500000	39.310000  
491.000000	37.764000  
491.500000	37.841000  
492.000000	38.856000  
492.500000	37.794000  
493.000000	37.211000  
493.500000	37.619000  
494.000000	36.975000  
494.500000	37.124000  
495.000000	36.129000  
495.500000	35.668000  
496.000000	36.136000  
496.500000	35.662000  
497.000000	36.097000  
497.500000	35.754000  
498.000000	34.631000  
498.500000	33.901000  
499.000000	34.293000  
499.500000	33.849000  
500.000000	33.380000  
500.500000	33.034000  
501.000000	33.454000  
501.500000	33.794000  
502.000000	32.808000  
502.500000	32.901000  
503.000000	31.259000  
503.500000	31.676000  
504.000000	31.787000  
504.500000	30.541000  
505.000000	30.642000  
505.500000	30.906000  
506.000000	30.945000  
506.500000	29.901000  
507.000000	29.232000  
507.500000	29.495000  
508.000000	28.617000  
508.500000	28.514000  
509.000000	29.327000  
509.500000	27.894000  
510.000000	28.273000  
510.500000	27.627000  
511.000000	27.407000  
511.500000	27.862000  
512.000000	27.516000  
512.500000	27.577000  
513.000000	26.986000  
513.500000	26.753000  
514.000000	26.570000  
514.500000	25.180000  
515.000000	25.631000  
515.500000	25.932000  
516.000000	24.948000  
516.500000	24.515000  
517.000000	23.641000  
517.500000	24.904000  
518.000000	24.316000  
518.500000	23.930000  
519.000000	23.950000  
519.500000	24.351000  
520.000000	22.028000  
520.500000	22.490000  
521.000000	23.015000  
521.500000	22.550000  
522.000000	21.972000  
522.500000	22.473000  
523.000000	21.593000  
523.500000	21.299000  
524.000000	21.282000  
524.500000	20.626000  
525.000000	20.850000  
525.500000	20.483000  
526.000000	20.292000  
526.500000	20.280000  
527.000000	19.839000  
527.500000	18.900000  
528.000000	18.894000  
528.500000	18.729000  
529.000000	18.382000  
529.500000	18.256000  
530.000000	18.738000  
530.500000	17.894000  
531.000000	17.925000  
531.500000	17.154000  
532.000000	17.258000  
532.500000	18.041000  
533.000000	17.618000  
533.500000	17.574000  
534.000000	16.810000  
534.500000	16.005000  
535.000000	16.435000  
535.500000	16.309000  
536.000000	15.332000  
536.500000	15.103000  
537.000000	15.001000  
537.500000	14.925000  
538.000000	15.249000  
538.500000	14.476000  
539.000000	14.675000  
539.500000	14.076000  
540.000000	14.204000  
540.500000	13.844000  
541.000000	13.382000  
541.500000	13.140000  
542.000000	13.472000  
542.500000	13.030000  
543.000000	13.115000  
543.500000	12.632000  
544.000000	12.718000  
544.500000	12.643000  
545.000000	12.352000  
545.500000	11.690000  
546.000000	11.521000  
546.500000	11.805000  
547.000000	11.336000  
547.500000	11.181000  
548.000000	10.999000  
548.500000	10.385000  

