PE FL                   SPECTRUM    ASCII       PEDS        1.60        
  -1
014903~1.SP
19/01/24
13:37:17.00
19/01/24
13:37:17.00


548.500000
1









LS45
500.00
10.00
10.00
SCAN
1
16
100
100
0
600
0
1
0
1
7
ON
550 545 
0 0 0
#HDR
-1
-1
#GR
NM
INT 
0.00002384185791015625
0.0
230.000000
0.500000
638
8
525.855000
0.075000
#DATA
230.000000	0.076000   
230.500000	0.075000   
231.000000	0.114000   
231.500000	0.079000   
232.000000	0.082000   
232.500000	0.090000   
233.000000	0.092000   
233.500000	0.128000   
234.000000	0.200000   
234.500000	0.169000   
235.000000	0.303000   
235.500000	0.402000   
236.000000	0.379000   
236.500000	0.535000   
237.000000	0.783000   
237.500000	0.981000   
238.000000	1.013000   
238.500000	1.360000   
239.000000	1.494000   
239.500000	1.568000   
240.000000	1.599000   
240.500000	1.841000   
241.000000	2.001000   
241.500000	2.312000   
242.000000	2.463000   
242.500000	2.800000   
243.000000	2.953000   
243.500000	2.844000   
244.000000	3.171000   
244.500000	3.648000   
245.000000	3.768000   
245.500000	3.582000   
246.000000	3.910000   
246.500000	3.775000   
247.000000	3.782000   
247.500000	4.288000   
248.000000	3.762000   
248.500000	3.818000   
249.000000	3.879000   
249.500000	3.607000   
250.000000	3.591000   
250.500000	3.196000   
251.000000	2.864000   
251.500000	2.833000   
252.000000	2.572000   
252.500000	2.474000   
253.000000	2.237000   
253.500000	2.210000   
254.000000	2.042000   
254.500000	1.777000   
255.000000	1.435000   
255.500000	1.340000   
256.000000	1.221000   
256.500000	1.186000   
257.000000	0.991000   
257.500000	0.931000   
258.000000	0.706000   
258.500000	0.553000   
259.000000	0.527000   
259.500000	0.610000   
260.000000	0.520000   
260.500000	0.612000   
261.000000	0.600000   
261.500000	0.593000   
262.000000	0.622000   
262.500000	0.819000   
263.000000	0.806000   
263.500000	1.014000   
264.000000	0.927000   
264.500000	1.042000   
265.000000	1.077000   
265.500000	1.192000   
266.000000	1.247000   
266.500000	1.168000   
267.000000	1.212000   
267.500000	1.388000   
268.000000	1.293000   
268.500000	1.434000   
269.000000	1.462000   
269.500000	1.466000   
270.000000	1.557000   
270.500000	1.476000   
271.000000	1.408000   
271.500000	1.321000   
272.000000	1.206000   
272.500000	1.108000   
273.000000	1.319000   
273.500000	1.151000   
274.000000	1.047000   
274.500000	0.990000   
275.000000	1.160000   
275.500000	1.043000   
276.000000	0.856000   
276.500000	0.724000   
277.000000	0.704000   
277.500000	0.646000   
278.000000	0.533000   
278.500000	0.508000   
279.000000	0.497000   
279.500000	0.337000   
280.000000	0.336000   
280.500000	0.335000   
281.000000	0.320000   
281.500000	0.347000   
282.000000	0.156000   
282.500000	0.144000   
283.000000	0.170000   
283.500000	0.237000   
284.000000	0.197000   
284.500000	0.210000   
285.000000	0.167000   
285.500000	0.206000   
286.000000	0.222000   
286.500000	0.173000   
287.000000	0.172000   
287.500000	0.202000   
288.000000	0.202000   
288.500000	0.158000   
289.000000	0.190000   
289.500000	0.207000   
290.000000	0.256000   
290.500000	0.192000   
291.000000	0.180000   
291.500000	0.151000   
292.000000	0.212000   
292.500000	0.238000   
293.000000	0.286000   
293.500000	0.269000   
294.000000	0.317000   
294.500000	0.251000   
295.000000	0.244000   
295.500000	0.236000   
296.000000	0.199000   
296.500000	0.310000   
297.000000	0.269000   
297.500000	0.285000   
298.000000	0.369000   
298.500000	0.280000   
299.000000	0.298000   
299.500000	0.292000   
300.000000	0.358000   
300.500000	0.322000   
301.000000	0.431000   
301.500000	0.305000   
302.000000	0.309000   
302.500000	0.433000   
303.000000	0.421000   
303.500000	0.423000   
304.000000	0.368000   
304.500000	0.395000   
305.000000	0.338000   
305.500000	0.432000   
306.000000	0.343000   
306.500000	0.409000   
307.000000	0.382000   
307.500000	0.528000   
308.000000	0.569000   
308.500000	0.496000   
309.000000	0.480000   
309.500000	0.536000   
310.000000	0.389000   
310.500000	0.438000   
311.000000	0.543000   
311.500000	0.502000   
312.000000	0.537000   
312.500000	0.636000   
313.000000	0.518000   
313.500000	0.647000   
314.000000	0.631000   
314.500000	0.632000   
315.000000	0.654000   
315.500000	0.692999   
316.000000	0.742000   
316.500000	0.821000   
317.000000	0.702000   
317.500000	0.641000   
318.000000	0.843000   
318.500000	0.779000   
319.000000	0.875000   
319.500000	0.744000   
320.000000	0.660000   
320.500000	0.696000   
321.000000	0.869000   
321.500000	0.807000   
322.000000	0.906000   
322.500000	0.840000   
323.000000	0.920000   
323.500000	0.990000   
324.000000	0.932000   
324.500000	1.069000   
325.000000	1.118000   
325.500000	1.096000   
326.000000	1.097000   
326.500000	1.124000   
327.000000	1.163000   
327.500000	1.115000   
328.000000	1.210000   
328.500000	1.319000   
329.000000	1.414000   
329.500000	1.306000   
330.000000	1.265000   
330.500000	1.396000   
331.000000	1.373000   
331.500000	1.529000   
332.000000	1.640000   
332.500000	1.543000   
333.000000	1.790000   
333.500000	1.815000   
334.000000	1.872000   
334.500000	1.708000   
335.000000	1.814000   
335.500000	1.671000   
336.000000	1.849000   
336.500000	1.882000   
337.000000	1.946000   
337.500000	2.097000   
338.000000	2.132000   
338.500000	2.005000   
339.000000	2.065000   
339.500000	2.084000   
340.000000	1.916000   
340.500000	2.267000   
341.000000	2.261000   
341.500000	2.105000   
342.000000	2.286000   
342.500000	2.372000   
343.000000	2.336000   
343.500000	2.179000   
344.000000	2.211000   
344.500000	2.311000   
345.000000	2.438000   
345.500000	2.534000   
346.000000	2.357000   
346.500000	2.416000   
347.000000	2.485000   
347.500000	2.675000   
348.000000	2.783000   
348.500000	2.500000   
349.000000	2.362000   
349.500000	2.408000   
350.000000	2.549000   
350.500000	2.667000   
351.000000	2.528000   
351.500000	2.924000   
352.000000	2.691000   
352.500000	2.830000   
353.000000	2.820000   
353.500000	2.807000   
354.000000	2.846000   
354.500000	2.904000   
355.000000	2.871000   
355.500000	2.934000   
356.000000	2.858000   
356.500000	2.710000   
357.000000	2.781000   
357.500000	2.801000   
358.000000	2.838000   
358.500000	2.649000   
359.000000	3.063000   
359.500000	3.123000   
360.000000	2.875000   
360.500000	2.737000   
361.000000	3.022000   
361.500000	2.926000   
362.000000	2.968000   
362.500000	3.012000   
363.000000	3.181000   
363.500000	3.370000   
364.000000	2.884000   
364.500000	2.985000   
365.000000	2.782000   
365.500000	3.201000   
366.000000	3.041000   
366.500000	2.960000   
367.000000	2.991000   
367.500000	3.104000   
368.000000	3.091000   
368.500000	3.248000   
369.000000	3.009000   
369.500000	2.796000   
370.000000	2.677000   
370.500000	2.910000   
371.000000	2.930000   
371.500000	2.816000   
372.000000	2.791000   
372.500000	2.947000   
373.000000	2.742000   
373.500000	3.015000   
374.000000	2.900000   
374.500000	2.647000   
375.000000	2.807000   
375.500000	2.967000   
376.000000	3.166000   
376.500000	2.946000   
377.000000	3.197000   
377.500000	3.146000   
378.000000	3.140000   
378.500000	2.833000   
379.000000	2.859000   
379.500000	2.899000   
380.000000	3.097000   
380.500000	2.742000   
381.000000	2.989000   
381.500000	2.916000   
382.000000	2.777000   
382.500000	2.770000   
383.000000	2.747000   
383.500000	3.054000   
384.000000	3.012000   
384.500000	2.656000   
385.000000	3.027000   
385.500000	2.859000   
386.000000	2.787000   
386.500000	2.711000   
387.000000	2.811000   
387.500000	2.637000   
388.000000	2.659000   
388.500000	2.791000   
389.000000	2.941000   
389.500000	2.620000   
390.000000	2.722000   
390.500000	2.679000   
391.000000	2.734000   
391.500000	2.365000   
392.000000	2.715000   
392.500000	2.765000   
393.000000	2.540000   
393.500000	2.733000   
394.000000	2.814000   
394.500000	2.615000   
395.000000	2.554000   
395.500000	2.828000   
396.000000	2.869000   
396.500000	2.793000   
397.000000	2.670000   
397.500000	2.892000   
398.000000	2.804000   
398.500000	2.617000   
399.000000	2.707000   
399.500000	2.523000   
400.000000	2.429000   
400.500000	2.627000   
401.000000	2.608000   
401.500000	2.429000   
402.000000	2.452000   
402.500000	2.602000   
403.000000	2.461000   
403.500000	2.371000   
404.000000	2.442000   
404.500000	2.636000   
405.000000	2.471000   
405.500000	2.299000   
406.000000	2.394000   
406.500000	2.510000   
407.000000	2.445000   
407.500000	2.306000   
408.000000	2.326000   
408.500000	2.545000   
409.000000	2.491000   
409.500000	2.672000   
410.000000	2.596000   
410.500000	2.516000   
411.000000	2.332000   
411.500000	2.532000   
412.000000	2.501000   
412.500000	2.475000   
413.000000	2.660000   
413.500000	2.757000   
414.000000	2.705000   
414.500000	2.658000   
415.000000	2.672000   
415.500000	2.603000   
416.000000	2.832000   
416.500000	2.714000   
417.000000	2.631000   
417.500000	2.528000   
418.000000	2.607000   
418.500000	2.634000   
419.000000	2.681000   
419.500000	2.798000   
420.000000	2.548000   
420.500000	2.418000   
421.000000	2.696000   
421.500000	2.790000   
422.000000	2.689000   
422.500000	2.668000   
423.000000	2.728000   
423.500000	2.963000   
424.000000	2.850000   
424.500000	2.762000   
425.000000	2.852000   
425.500000	2.775000   
426.000000	2.974000   
426.500000	2.669000   
427.000000	2.675000   
427.500000	2.705000   
428.000000	2.665000   
428.500000	2.703000   
429.000000	2.924000   
429.500000	3.004000   
430.000000	3.204000   
430.500000	3.148000   
431.000000	2.697000   
431.500000	2.802000   
432.000000	2.646000   
432.500000	2.829000   
433.000000	2.847000   
433.500000	2.837000   
434.000000	2.966000   
434.500000	2.962000   
435.000000	2.954000   
435.500000	2.901000   
436.000000	3.120000   
436.500000	3.033000   
437.000000	3.024000   
437.500000	3.108000   
438.000000	3.166000   
438.500000	3.334000   
439.000000	3.193000   
439.500000	3.162000   
440.000000	3.231000   
440.500000	3.177000   
441.000000	3.314000   
441.500000	3.301000   
442.000000	3.294000   
442.500000	3.214000   
443.000000	3.125000   
443.500000	3.178000   
444.000000	3.283000   
444.500000	3.365000   
445.000000	3.530000   
445.500000	3.422000   
446.000000	3.355000   
446.500000	3.355000   
447.000000	3.299000   
447.500000	3.221000   
448.000000	3.090000   
448.500000	3.482000   
449.000000	3.590000   
449.500000	3.567000   
450.000000	3.511000   
450.500000	3.451000   
451.000000	3.354000   
451.500000	3.405000   
452.000000	3.586000   
452.500000	3.499000   
453.000000	3.675000   
453.500000	3.353000   
454.000000	3.189000   
454.500000	3.425000   
455.000000	3.527000   
455.500000	3.283000   
456.000000	3.529000   
456.500000	3.392000   
457.000000	3.501000   
457.500000	3.376000   
458.000000	3.522000   
458.500000	3.470000   
459.000000	3.119000   
459.500000	3.382000   
460.000000	3.423000   
460.500000	3.255000   
461.000000	3.211000   
461.500000	3.591000   
462.000000	3.570000   
462.500000	3.585000   
463.000000	3.488000   
463.500000	3.580000   
464.000000	3.373000   
464.500000	3.159000   
465.000000	3.175000   
465.500000	3.506000   
466.000000	3.620000   
466.500000	3.377000   
467.000000	3.581000   
467.500000	3.730000   
468.000000	3.670000   
468.500000	3.543000   
469.000000	3.511000   
469.500000	3.372000   
470.000000	3.369000   
470.500000	3.474000   
471.000000	3.882000   
471.500000	3.483000   
472.000000	3.453000   
472.500000	3.284000   
473.000000	3.901000   
473.500000	3.746000   
474.000000	3.925000   
474.500000	4.096000   
475.000000	4.512000   
475.500000	4.491000   
476.000000	4.926000   
476.500000	5.086000   
477.000000	6.025000   
477.500000	7.063000   
478.000000	8.667999   
478.500000	10.847000  
479.000000	14.286000  
479.500000	17.977000  
480.000000	21.680000  
480.500000	26.716000  
481.000000	34.620000  
481.500000	41.967000  
482.000000	50.184000  
482.500000	59.661000  
483.000000	71.660000  
483.500000	86.203000  
484.000000	101.683000 
484.500000	117.456000 
485.000000	134.465000 
485.500000	153.968000 
486.000000	172.399000 
486.500000	198.921000 
487.000000	220.616000 
487.500000	246.584000 
488.000000	265.449000 
488.500000	293.926000 
489.000000	317.557000 
489.500000	345.894000 
490.000000	367.683000 
490.500000	393.011000 
491.000000	415.598000 
491.500000	439.789000 
492.000000	450.904000 
492.500000	476.327000 
493.000000	487.119000 
493.500000	502.386000 
494.000000	508.904000 
494.500000	517.059999 
495.000000	523.110000 
495.500000	525.855000 
496.000000	518.715000 
496.500000	515.197000 
497.000000	509.150000 
497.500000	498.509000 
498.000000	488.452000 
498.500000	476.115000 
499.000000	458.967000 
499.500000	436.620000 
500.000000	422.813000 
500.500000	400.195000 
501.000000	378.559000 
501.500000	351.859000 
502.000000	326.344000 
502.500000	302.824000 
503.000000	282.636000 
503.500000	260.959000 
504.000000	234.706000 
504.500000	213.652000 
505.000000	187.252000 
505.500000	167.841000 
506.000000	147.286000 
506.500000	128.964000 
507.000000	111.880000 
507.500000	94.730999  
508.000000	80.098000  
508.500000	69.381000  
509.000000	57.264000  
509.500000	48.398000  
510.000000	37.077000  
510.500000	30.893000  
511.000000	25.788000  
511.500000	21.433000  
512.000000	16.784000  
512.500000	13.255000  
513.000000	10.799000  
513.500000	8.956000   
514.000000	6.644000   
514.500000	5.994000   
515.000000	5.047000   
515.500000	4.487000   
516.000000	4.188000   
516.500000	3.968000   
517.000000	3.737000   
517.500000	3.533000   
518.000000	3.329000   
518.500000	3.121000   
519.000000	3.241000   
519.500000	3.123000   
520.000000	3.060000   
520.500000	2.837000   
521.000000	3.022000   
521.500000	2.882000   
522.000000	2.956000   
522.500000	3.005000   
523.000000	3.001000   
523.500000	2.861000   
524.000000	3.014000   
524.500000	3.213000   
525.000000	2.828000   
525.500000	2.909000   
526.000000	2.877000   
526.500000	2.681000   
527.000000	2.877000   
527.500000	2.936000   
528.000000	3.070000   
528.500000	3.093000   
529.000000	3.499000   
529.500000	3.309000   
530.000000	3.245000   
530.500000	3.564000   
531.000000	3.493000   
531.500000	3.694000   
532.000000	4.095000   
532.500000	4.301000   
533.000000	4.247000   
533.500000	4.087000   
534.000000	4.558000   
534.500000	4.632000   
535.000000	4.705000   
535.500000	5.026000   
536.000000	5.012000   
536.500000	4.877000   
537.000000	5.430000   
537.500000	5.724000   
538.000000	5.586000   
538.500000	5.374000   
539.000000	6.004000   
539.500000	5.785000   
540.000000	5.348000   
540.500000	5.625000   
541.000000	5.954000   
541.500000	5.631000   
542.000000	5.117000   
542.500000	5.429000   
543.000000	5.082000   
543.500000	5.314000   
544.000000	5.073000   
544.500000	4.958000   
545.000000	4.823000   
545.500000	4.832000   
546.000000	4.212000   
546.500000	4.575000   
547.000000	4.019000   
547.500000	3.857000   
548.000000	3.647000   
548.500000	3.471000   

