PE FL                   SPECTRUM    ASCII       PEDS        1.60        
  -1
01450B~1.SP
19/01/24
13:28:14.00
19/01/24
13:28:14.00


548.500000
1









LS45
440.00
10.00
10.00
SCAN
1
16
100
100
0
600
0
1
0
1
7
ON
550 545 
0 0 0
#HDR
-1
-1
#GR
NM
INT 
0.00002384185791015625
0.0
230.000000
0.500000
638
8
999.999000
0.082000
#DATA
230.000000	0.110000   
230.500000	0.143000   
231.000000	0.114000   
231.500000	0.127000   
232.000000	0.158000   
232.500000	0.257000   
233.000000	0.152000   
233.500000	0.126000   
234.000000	0.107000   
234.500000	0.082000   
235.000000	0.113000   
235.500000	0.185000   
236.000000	0.145000   
236.500000	0.149000   
237.000000	0.163000   
237.500000	0.153000   
238.000000	0.172000   
238.500000	0.253000   
239.000000	0.196000   
239.500000	0.188000   
240.000000	0.179000   
240.500000	0.217000   
241.000000	0.223000   
241.500000	0.183000   
242.000000	0.124000   
242.500000	0.135000   
243.000000	0.203000   
243.500000	0.195000   
244.000000	0.159000   
244.500000	0.170000   
245.000000	0.196000   
245.500000	0.154000   
246.000000	0.214000   
246.500000	0.284000   
247.000000	0.250000   
247.500000	0.245000   
248.000000	0.208000   
248.500000	0.249000   
249.000000	0.207000   
249.500000	0.188000   
250.000000	0.276000   
250.500000	0.186000   
251.000000	0.223000   
251.500000	0.209000   
252.000000	0.170000   
252.500000	0.227000   
253.000000	0.275000   
253.500000	0.156000   
254.000000	0.241000   
254.500000	0.216000   
255.000000	0.161000   
255.500000	0.159000   
256.000000	0.145000   
256.500000	0.176000   
257.000000	0.219000   
257.500000	0.209000   
258.000000	0.178000   
258.500000	0.142000   
259.000000	0.162000   
259.500000	0.195000   
260.000000	0.208000   
260.500000	0.241000   
261.000000	0.200000   
261.500000	0.203000   
262.000000	0.162000   
262.500000	0.136000   
263.000000	0.184000   
263.500000	0.210000   
264.000000	0.197000   
264.500000	0.195000   
265.000000	0.201000   
265.500000	0.240000   
266.000000	0.182000   
266.500000	0.168000   
267.000000	0.153000   
267.500000	0.240000   
268.000000	0.213000   
268.500000	0.212000   
269.000000	0.148000   
269.500000	0.179000   
270.000000	0.253000   
270.500000	0.254000   
271.000000	0.252000   
271.500000	0.265000   
272.000000	0.226000   
272.500000	0.222000   
273.000000	0.234000   
273.500000	0.238000   
274.000000	0.213000   
274.500000	0.248000   
275.000000	0.173000   
275.500000	0.185000   
276.000000	0.174000   
276.500000	0.286000   
277.000000	0.254000   
277.500000	0.218000   
278.000000	0.229000   
278.500000	0.208000   
279.000000	0.203000   
279.500000	0.203000   
280.000000	0.202000   
280.500000	0.254000   
281.000000	0.198000   
281.500000	0.215000   
282.000000	0.207000   
282.500000	0.173000   
283.000000	0.242000   
283.500000	0.280000   
284.000000	0.236000   
284.500000	0.263000   
285.000000	0.281000   
285.500000	0.226000   
286.000000	0.226000   
286.500000	0.211000   
287.000000	0.229000   
287.500000	0.230000   
288.000000	0.289000   
288.500000	0.238000   
289.000000	0.183000   
289.500000	0.265000   
290.000000	0.301000   
290.500000	0.286000   
291.000000	0.256000   
291.500000	0.285000   
292.000000	0.298000   
292.500000	0.254000   
293.000000	0.260000   
293.500000	0.318000   
294.000000	0.259000   
294.500000	0.313000   
295.000000	0.270000   
295.500000	0.235000   
296.000000	0.237000   
296.500000	0.236000   
297.000000	0.332000   
297.500000	0.215000   
298.000000	0.298000   
298.500000	0.299000   
299.000000	0.211000   
299.500000	0.340000   
300.000000	0.318000   
300.500000	0.303000   
301.000000	0.232000   
301.500000	0.300000   
302.000000	0.416000   
302.500000	0.330000   
303.000000	0.292000   
303.500000	0.296000   
304.000000	0.359000   
304.500000	0.251000   
305.000000	0.320000   
305.500000	0.322000   
306.000000	0.352000   
306.500000	0.316000   
307.000000	0.367000   
307.500000	0.375000   
308.000000	0.283000   
308.500000	0.371000   
309.000000	0.389000   
309.500000	0.283000   
310.000000	0.328000   
310.500000	0.325000   
311.000000	0.350000   
311.500000	0.387000   
312.000000	0.485000   
312.500000	0.314000   
313.000000	0.369000   
313.500000	0.395000   
314.000000	0.368000   
314.500000	0.319000   
315.000000	0.394000   
315.500000	0.331000   
316.000000	0.401000   
316.500000	0.365000   
317.000000	0.326000   
317.500000	0.397000   
318.000000	0.409000   
318.500000	0.327000   
319.000000	0.334000   
319.500000	0.428000   
320.000000	0.479000   
320.500000	0.555000   
321.000000	0.425000   
321.500000	0.400000   
322.000000	0.459000   
322.500000	0.449000   
323.000000	0.419000   
323.500000	0.451000   
324.000000	0.470000   
324.500000	0.360000   
325.000000	0.392000   
325.500000	0.500000   
326.000000	0.537000   
326.500000	0.453000   
327.000000	0.449000   
327.500000	0.359000   
328.000000	0.427000   
328.500000	0.372000   
329.000000	0.562000   
329.500000	0.448000   
330.000000	0.465000   
330.500000	0.506000   
331.000000	0.532000   
331.500000	0.606000   
332.000000	0.581000   
332.500000	0.594000   
333.000000	0.466000   
333.500000	0.537000   
334.000000	0.535000   
334.500000	0.527000   
335.000000	0.493000   
335.500000	0.458000   
336.000000	0.610000   
336.500000	0.636000   
337.000000	0.529000   
337.500000	0.456000   
338.000000	0.571000   
338.500000	0.556000   
339.000000	0.573000   
339.500000	0.579000   
340.000000	0.576000   
340.500000	0.615000   
341.000000	0.567999   
341.500000	0.580000   
342.000000	0.562999   
342.500000	0.617000   
343.000000	0.641000   
343.500000	0.653000   
344.000000	0.621000   
344.500000	0.468000   
345.000000	0.527000   
345.500000	0.671000   
346.000000	0.728000   
346.500000	0.605000   
347.000000	0.694000   
347.500000	0.703000   
348.000000	0.631000   
348.500000	0.701000   
349.000000	0.765000   
349.500000	0.769000   
350.000000	0.645000   
350.500000	0.779000   
351.000000	0.757000   
351.500000	0.819000   
352.000000	0.684000   
352.500000	0.803000   
353.000000	0.758000   
353.500000	0.664000   
354.000000	0.748000   
354.500000	0.803000   
355.000000	0.793000   
355.500000	0.696000   
356.000000	0.824000   
356.500000	0.763000   
357.000000	0.748000   
357.500000	0.683000   
358.000000	0.704000   
358.500000	0.791000   
359.000000	0.752000   
359.500000	0.688999   
360.000000	0.692999   
360.500000	0.835000   
361.000000	0.866000   
361.500000	0.920000   
362.000000	0.802000   
362.500000	0.814999   
363.000000	0.823000   
363.500000	0.856000   
364.000000	0.891000   
364.500000	0.797000   
365.000000	0.912000   
365.500000	0.845000   
366.000000	0.821000   
366.500000	0.802000   
367.000000	1.068000   
367.500000	0.982000   
368.000000	0.991000   
368.500000	0.905000   
369.000000	0.996000   
369.500000	0.986000   
370.000000	0.823000   
370.500000	0.910000   
371.000000	0.930000   
371.500000	0.938999   
372.000000	0.912000   
372.500000	1.034000   
373.000000	0.951000   
373.500000	1.073000   
374.000000	1.172000   
374.500000	1.013000   
375.000000	0.972000   
375.500000	1.205000   
376.000000	1.111000   
376.500000	1.161000   
377.000000	1.127000   
377.500000	1.274000   
378.000000	1.203000   
378.500000	1.406000   
379.000000	1.192000   
379.500000	1.216000   
380.000000	1.226000   
380.500000	1.451000   
381.000000	1.460000   
381.500000	1.485000   
382.000000	1.380000   
382.500000	1.360000   
383.000000	1.304000   
383.500000	1.406000   
384.000000	1.424000   
384.500000	1.383000   
385.000000	1.396000   
385.500000	1.349000   
386.000000	1.525000   
386.500000	1.714000   
387.000000	1.723000   
387.500000	1.481000   
388.000000	1.447000   
388.500000	1.656000   
389.000000	1.913000   
389.500000	1.673000   
390.000000	1.654000   
390.500000	1.851000   
391.000000	1.653000   
391.500000	1.826000   
392.000000	1.860000   
392.500000	2.014000   
393.000000	1.957000   
393.500000	1.999000   
394.000000	1.888000   
394.500000	2.154000   
395.000000	1.920000   
395.500000	2.093000   
396.000000	2.075000   
396.500000	2.068000   
397.000000	2.322000   
397.500000	2.092000   
398.000000	2.238000   
398.500000	2.162000   
399.000000	2.412000   
399.500000	2.421000   
400.000000	2.531000   
400.500000	2.480000   
401.000000	2.337000   
401.500000	2.617000   
402.000000	2.669000   
402.500000	2.700000   
403.000000	2.782000   
403.500000	2.799000   
404.000000	2.819000   
404.500000	2.769000   
405.000000	2.835000   
405.500000	2.855000   
406.000000	2.773000   
406.500000	3.103000   
407.000000	3.251000   
407.500000	3.333000   
408.000000	3.175000   
408.500000	3.330000   
409.000000	3.612000   
409.500000	3.404000   
410.000000	3.803000   
410.500000	3.719000   
411.000000	3.941000   
411.500000	3.971000   
412.000000	3.907000   
412.500000	4.426000   
413.000000	4.232000   
413.500000	4.319000   
414.000000	4.751000   
414.500000	4.927000   
415.000000	5.108000   
415.500000	5.469000   
416.000000	6.097000   
416.500000	6.993000   
417.000000	7.944000   
417.500000	10.333000  
418.000000	12.184000  
418.500000	15.799000  
419.000000	21.414000  
419.500000	27.560000  
420.000000	34.357000  
420.500000	45.173000  
421.000000	55.096000  
421.500000	71.879000  
422.000000	91.423000  
422.500000	115.680000 
423.000000	136.137000 
423.500000	164.407000 
424.000000	195.430000 
424.500000	233.826000 
425.000000	276.991000 
425.500000	325.089000 
426.000000	365.683000 
426.500000	412.115000 
427.000000	466.137000 
427.500000	509.650000 
428.000000	566.458000 
428.500000	620.832000 
429.000000	674.818000 
429.500000	716.277000 
430.000000	766.708000 
430.500000	803.399000 
431.000000	855.066000 
431.500000	894.212000 
432.000000	928.053000 
432.500000	949.913000 
433.000000	983.289000 
433.500000	999.999000 
434.000000	999.999000 
434.500000	999.999000 
435.000000	999.999000 
435.500000	999.999000 
436.000000	999.999000 
436.500000	999.999000 
437.000000	999.999000 
437.500000	999.999000 
438.000000	999.999000 
438.500000	999.999000 
439.000000	998.711000 
439.500000	970.897000 
440.000000	940.509000 
440.500000	901.612000 
441.000000	857.689000 
441.500000	821.097000 
442.000000	770.500000 
442.500000	720.424000 
443.000000	676.829000 
443.500000	622.455000 
444.000000	564.073000 
444.500000	509.365000 
445.000000	464.455000 
445.500000	409.012000 
446.000000	365.352000 
446.500000	313.310000 
447.000000	268.295000 
447.500000	225.165000 
448.000000	194.533000 
448.500000	157.862000 
449.000000	134.303000 
449.500000	104.546000 
450.000000	89.278000  
450.500000	67.410000  
451.000000	55.905000  
451.500000	44.024000  
452.000000	34.383000  
452.500000	27.905000  
453.000000	22.347000  
453.500000	17.264000  
454.000000	14.992000  
454.500000	12.205000  
455.000000	11.013000  
455.500000	9.486000   
456.000000	8.932000   
456.500000	9.065000   
457.000000	8.628000   
457.500000	8.497000   
458.000000	7.896000   
458.500000	7.716000   
459.000000	8.141000   
459.500000	7.829000   
460.000000	8.295000   
460.500000	8.211000   
461.000000	7.797000   
461.500000	7.885000   
462.000000	8.085000   
462.500000	7.917000   
463.000000	8.080000   
463.500000	8.270000   
464.000000	8.042000   
464.500000	7.982000   
465.000000	7.686000   
465.500000	8.115000   
466.000000	8.978999   
466.500000	8.471000   
467.000000	8.462000   
467.500000	8.589000   
468.000000	8.507999   
468.500000	8.361000   
469.000000	8.465000   
469.500000	8.507000   
470.000000	8.885000   
470.500000	9.064000   
471.000000	9.385999   
471.500000	9.117000   
472.000000	9.108000   
472.500000	9.830000   
473.000000	9.462999   
473.500000	9.494000   
474.000000	10.306000  
474.500000	10.313000  
475.000000	9.901000   
475.500000	10.501000  
476.000000	10.434000  
476.500000	10.255000  
477.000000	10.356000  
477.500000	10.650000  
478.000000	10.544000  
478.500000	10.876000  
479.000000	11.266000  
479.500000	11.126000  
480.000000	11.218000  
480.500000	11.953000  
481.000000	11.968000  
481.500000	12.365000  
482.000000	12.042000  
482.500000	12.235000  
483.000000	12.351000  
483.500000	12.384000  
484.000000	12.375000  
484.500000	12.422000  
485.000000	12.925000  
485.500000	13.185000  
486.000000	13.279000  
486.500000	13.301000  
487.000000	13.452000  
487.500000	13.515000  
488.000000	14.358000  
488.500000	14.229000  
489.000000	14.733000  
489.500000	14.408000  
490.000000	14.406000  
490.500000	14.409000  
491.000000	14.470000  
491.500000	15.263000  
492.000000	15.375000  
492.500000	15.396000  
493.000000	15.825000  
493.500000	15.466000  
494.000000	16.057000  
494.500000	16.542000  
495.000000	16.543000  
495.500000	16.259000  
496.000000	16.193000  
496.500000	17.544000  
497.000000	17.917000  
497.500000	17.691000  
498.000000	17.411000  
498.500000	18.715000  
499.000000	18.968000  
499.500000	19.291000  
500.000000	18.888000  
500.500000	18.690000  
501.000000	19.461000  
501.500000	19.701000  
502.000000	20.679000  
502.500000	20.180000  
503.000000	20.145000  
503.500000	20.731000  
504.000000	21.255000  
504.500000	21.599000  
505.000000	21.385000  
505.500000	21.845000  
506.000000	21.822000  
506.500000	23.282000  
507.000000	23.562000  
507.500000	23.164000  
508.000000	22.387000  
508.500000	22.488000  
509.000000	23.208000  
509.500000	22.830000  
510.000000	22.774000  
510.500000	23.464000  
511.000000	23.770000  
511.500000	22.833000  
512.000000	23.798000  
512.500000	23.881000  
513.000000	24.027000  
513.500000	22.973000  
514.000000	23.311000  
514.500000	22.379000  
515.000000	21.717000  
515.500000	21.633000  
516.000000	21.929000  
516.500000	22.743000  
517.000000	22.166000  
517.500000	21.855000  
518.000000	20.616000  
518.500000	20.229000  
519.000000	21.511000  
519.500000	20.686000  
520.000000	20.459000  
520.500000	19.460000  
521.000000	19.556000  
521.500000	19.280000  
522.000000	18.082000  
522.500000	18.594000  
523.000000	17.962000  
523.500000	17.963000  
524.000000	18.021000  
524.500000	17.585000  
525.000000	16.784000  
525.500000	16.474000  
526.000000	15.949000  
526.500000	15.964000  
527.000000	16.016000  
527.500000	15.685000  
528.000000	15.309000  
528.500000	14.781000  
529.000000	14.843000  
529.500000	14.701000  
530.000000	13.916000  
530.500000	13.686000  
531.000000	13.951000  
531.500000	13.951000  
532.000000	13.739000  
532.500000	13.393000  
533.000000	13.006000  
533.500000	13.133000  
534.000000	12.919000  
534.500000	12.815000  
535.000000	12.483000  
535.500000	11.747000  
536.000000	12.456000  
536.500000	12.258000  
537.000000	12.133000  
537.500000	11.692000  
538.000000	11.586000  
538.500000	11.743000  
539.000000	11.684000  
539.500000	11.920000  
540.000000	11.104000  
540.500000	11.219000  
541.000000	11.090000  
541.500000	10.722000  
542.000000	10.895000  
542.500000	10.884000  
543.000000	10.157000  
543.500000	10.084000  
544.000000	10.199000  
544.500000	9.826000   
545.000000	9.503000   
545.500000	9.836000   
546.000000	9.192000   
546.500000	9.007999   
547.000000	9.385000   
547.500000	9.689000   
548.000000	9.561999   
548.500000	9.593000   

