PE FL                   SPECTRUM    ASCII       PEDS        1.60        
  -1
0124SC~2.SP
19/01/24
13:23:42.00
19/01/24
13:23:42.00


548.500000
1









LS45
410.00
10.00
10.00
SCAN
1
16
100
100
0
600
0
1
0
1
7
ON
550 545 
0 0 0
#HDR
-1
-1
#GR
NM
INT 
0.00002384185791015625
0.0
230.000000
0.500000
638
8
999.999000
0.144000
#DATA
230.000000	0.340000   
230.500000	0.303000   
231.000000	0.244000   
231.500000	0.289000   
232.000000	0.383000   
232.500000	0.335000   
233.000000	0.357000   
233.500000	0.442000   
234.000000	0.381000   
234.500000	0.391000   
235.000000	0.305000   
235.500000	0.241000   
236.000000	0.259000   
236.500000	0.272000   
237.000000	0.332000   
237.500000	0.314000   
238.000000	0.238000   
238.500000	0.278000   
239.000000	0.288000   
239.500000	0.248000   
240.000000	0.198000   
240.500000	0.413000   
241.000000	0.279000   
241.500000	0.235000   
242.000000	0.247000   
242.500000	0.280000   
243.000000	0.314000   
243.500000	0.383000   
244.000000	0.257000   
244.500000	0.308000   
245.000000	0.379000   
245.500000	0.294000   
246.000000	0.287000   
246.500000	0.259000   
247.000000	0.249000   
247.500000	0.306000   
248.000000	0.211000   
248.500000	0.250000   
249.000000	0.239000   
249.500000	0.315000   
250.000000	0.372000   
250.500000	0.280000   
251.000000	0.265000   
251.500000	0.144000   
252.000000	0.190000   
252.500000	0.265000   
253.000000	0.292000   
253.500000	0.348000   
254.000000	0.344000   
254.500000	0.229000   
255.000000	0.185000   
255.500000	0.198000   
256.000000	0.267000   
256.500000	0.306000   
257.000000	0.283000   
257.500000	0.200000   
258.000000	0.211000   
258.500000	0.277000   
259.000000	0.401000   
259.500000	0.275000   
260.000000	0.277000   
260.500000	0.302000   
261.000000	0.332000   
261.500000	0.336000   
262.000000	0.321000   
262.500000	0.289000   
263.000000	0.355000   
263.500000	0.270000   
264.000000	0.294000   
264.500000	0.293000   
265.000000	0.301000   
265.500000	0.337000   
266.000000	0.309000   
266.500000	0.349000   
267.000000	0.404000   
267.500000	0.368000   
268.000000	0.373000   
268.500000	0.368000   
269.000000	0.297000   
269.500000	0.355000   
270.000000	0.398000   
270.500000	0.431000   
271.000000	0.355000   
271.500000	0.328000   
272.000000	0.383000   
272.500000	0.279000   
273.000000	0.285000   
273.500000	0.361000   
274.000000	0.345000   
274.500000	0.395000   
275.000000	0.392000   
275.500000	0.327000   
276.000000	0.278000   
276.500000	0.422000   
277.000000	0.389000   
277.500000	0.344000   
278.000000	0.438000   
278.500000	0.380000   
279.000000	0.415000   
279.500000	0.438000   
280.000000	0.335000   
280.500000	0.380000   
281.000000	0.329000   
281.500000	0.426000   
282.000000	0.353000   
282.500000	0.405000   
283.000000	0.386000   
283.500000	0.436000   
284.000000	0.394000   
284.500000	0.404000   
285.000000	0.414000   
285.500000	0.479000   
286.000000	0.358000   
286.500000	0.365000   
287.000000	0.398000   
287.500000	0.439000   
288.000000	0.474000   
288.500000	0.467000   
289.000000	0.392000   
289.500000	0.375000   
290.000000	0.511000   
290.500000	0.433000   
291.000000	0.414000   
291.500000	0.332000   
292.000000	0.364000   
292.500000	0.309000   
293.000000	0.327000   
293.500000	0.428000   
294.000000	0.351000   
294.500000	0.409000   
295.000000	0.381000   
295.500000	0.383000   
296.000000	0.509000   
296.500000	0.427000   
297.000000	0.393000   
297.500000	0.463000   
298.000000	0.480000   
298.500000	0.421000   
299.000000	0.461000   
299.500000	0.460000   
300.000000	0.555000   
300.500000	0.487000   
301.000000	0.493000   
301.500000	0.521000   
302.000000	0.533000   
302.500000	0.562999   
303.000000	0.531000   
303.500000	0.548000   
304.000000	0.515000   
304.500000	0.487000   
305.000000	0.535000   
305.500000	0.426000   
306.000000	0.432000   
306.500000	0.463000   
307.000000	0.530000   
307.500000	0.546000   
308.000000	0.521000   
308.500000	0.480000   
309.000000	0.524000   
309.500000	0.543000   
310.000000	0.589000   
310.500000	0.600000   
311.000000	0.625000   
311.500000	0.638000   
312.000000	0.551000   
312.500000	0.542000   
313.000000	0.649000   
313.500000	0.699000   
314.000000	0.613000   
314.500000	0.547000   
315.000000	0.640000   
315.500000	0.582000   
316.000000	0.667000   
316.500000	0.912000   
317.000000	0.727000   
317.500000	0.881000   
318.000000	0.681000   
318.500000	0.645000   
319.000000	0.709000   
319.500000	0.750000   
320.000000	0.731000   
320.500000	0.795000   
321.000000	0.775000   
321.500000	0.725000   
322.000000	0.795000   
322.500000	0.640000   
323.000000	0.738000   
323.500000	0.744000   
324.000000	0.712000   
324.500000	0.863000   
325.000000	0.844000   
325.500000	0.810000   
326.000000	0.917000   
326.500000	0.897000   
327.000000	0.747000   
327.500000	0.910000   
328.000000	0.960000   
328.500000	0.868000   
329.000000	0.812999   
329.500000	0.768000   
330.000000	0.750000   
330.500000	0.926000   
331.000000	0.792000   
331.500000	0.922000   
332.000000	0.857000   
332.500000	0.845000   
333.000000	0.921000   
333.500000	1.011000   
334.000000	0.981000   
334.500000	0.829000   
335.000000	0.928000   
335.500000	0.991000   
336.000000	0.991000   
336.500000	0.894000   
337.000000	0.944000   
337.500000	0.947000   
338.000000	0.979000   
338.500000	1.050000   
339.000000	1.091000   
339.500000	1.002000   
340.000000	1.141000   
340.500000	1.157000   
341.000000	1.148000   
341.500000	1.042000   
342.000000	0.989000   
342.500000	1.087000   
343.000000	1.187000   
343.500000	1.177000   
344.000000	1.045000   
344.500000	1.385000   
345.000000	1.291000   
345.500000	1.251000   
346.000000	1.148000   
346.500000	1.294000   
347.000000	1.228000   
347.500000	1.403000   
348.000000	1.305000   
348.500000	1.380000   
349.000000	1.150000   
349.500000	1.142000   
350.000000	1.449000   
350.500000	1.469000   
351.000000	1.369000   
351.500000	1.514000   
352.000000	1.466000   
352.500000	1.547000   
353.000000	1.666000   
353.500000	1.639000   
354.000000	1.749000   
354.500000	1.870000   
355.000000	1.975000   
355.500000	1.938000   
356.000000	1.900000   
356.500000	1.879000   
357.000000	1.870000   
357.500000	1.844000   
358.000000	1.848000   
358.500000	1.943000   
359.000000	1.984000   
359.500000	1.886000   
360.000000	1.980000   
360.500000	2.086000   
361.000000	1.945000   
361.500000	2.032000   
362.000000	2.194000   
362.500000	2.263000   
363.000000	2.194000   
363.500000	2.247000   
364.000000	2.413000   
364.500000	2.504000   
365.000000	2.706000   
365.500000	2.983000   
366.000000	2.708000   
366.500000	2.647000   
367.000000	2.769000   
367.500000	2.805000   
368.000000	2.863000   
368.500000	3.057000   
369.000000	2.914000   
369.500000	2.947000   
370.000000	2.903000   
370.500000	3.010000   
371.000000	3.092000   
371.500000	3.275000   
372.000000	3.388000   
372.500000	3.370000   
373.000000	3.547000   
373.500000	3.488000   
374.000000	3.647000   
374.500000	3.690000   
375.000000	3.918000   
375.500000	3.933000   
376.000000	4.108000   
376.500000	3.727000   
377.000000	4.155000   
377.500000	4.579000   
378.000000	4.690000   
378.500000	4.676000   
379.000000	4.631000   
379.500000	4.963000   
380.000000	4.895000   
380.500000	5.300000   
381.000000	5.177000   
381.500000	5.240000   
382.000000	5.359000   
382.500000	5.167000   
383.000000	5.957000   
383.500000	5.493000   
384.000000	5.910000   
384.500000	6.400000   
385.000000	6.828000   
385.500000	6.899000   
386.000000	7.997000   
386.500000	9.249000   
387.000000	11.067000  
387.500000	12.662000  
388.000000	17.043000  
388.500000	20.931000  
389.000000	26.268000  
389.500000	33.670000  
390.000000	43.884000  
390.500000	53.907000  
391.000000	69.513000  
391.500000	86.872000  
392.000000	107.460000 
392.500000	132.596000 
393.000000	160.012000 
393.500000	198.049000 
394.000000	232.834000 
394.500000	281.917000 
395.000000	325.917000 
395.500000	383.332000 
396.000000	484.080000 
396.500000	496.747000 
397.000000	616.942000 
397.500000	626.427000 
398.000000	750.520000 
398.500000	759.659000 
399.000000	876.665000 
399.500000	886.806000 
400.000000	940.014000 
400.500000	999.999000 
401.000000	999.999000 
401.500000	999.999000 
402.000000	999.999000 
402.500000	999.999000 
403.000000	999.999000 
403.500000	999.999000 
404.000000	999.999000 
404.500000	999.999000 
405.000000	999.999000 
405.500000	999.999000 
406.000000	999.999000 
406.500000	999.999000 
407.000000	999.999000 
407.500000	999.999000 
408.000000	999.999000 
408.500000	999.999000 
409.000000	999.999000 
409.500000	999.999000 
410.000000	999.999000 
410.500000	999.999000 
411.000000	999.999000 
411.500000	999.999000 
412.000000	999.999000 
412.500000	999.999000 
413.000000	978.317000 
413.500000	919.513000 
414.000000	803.426000 
414.500000	792.559000 
415.000000	666.462000 
415.500000	592.569000 
416.000000	524.971000 
416.500000	514.980000 
417.000000	398.108000 
417.500000	390.414000 
418.000000	347.037000 
418.500000	287.403000 
419.000000	242.393000 
419.500000	203.828000 
420.000000	173.403000 
420.500000	138.497000 
421.000000	114.189000 
421.500000	90.828999  
422.000000	72.712000  
422.500000	59.325000  
423.000000	49.279000  
423.500000	39.585000  
424.000000	33.796000  
424.500000	28.298000  
425.000000	24.735000  
425.500000	21.922000  
426.000000	20.777000  
426.500000	20.065000  
427.000000	20.086000  
427.500000	19.034000  
428.000000	18.957000  
428.500000	19.732000  
429.000000	19.544000  
429.500000	19.732000  
430.000000	20.218000  
430.500000	20.685000  
431.000000	20.907000  
431.500000	21.166000  
432.000000	20.564000  
432.500000	21.463000  
433.000000	21.433000  
433.500000	20.891000  
434.000000	21.835000  
434.500000	22.526000  
435.000000	21.973000  
435.500000	22.201000  
436.000000	21.879000  
436.500000	22.750000  
437.000000	23.158000  
437.500000	22.849000  
438.000000	23.467000  
438.500000	23.727000  
439.000000	23.273000  
439.500000	24.328000  
440.000000	24.608000  
440.500000	24.990000  
441.000000	25.799000  
441.500000	25.833000  
442.000000	25.266000  
442.500000	25.023000  
443.000000	26.154000  
443.500000	25.801000  
444.000000	26.213000  
444.500000	26.040000  
445.000000	26.335000  
445.500000	26.162000  
446.000000	26.248000  
446.500000	27.294000  
447.000000	25.856000  
447.500000	26.200000  
448.000000	27.671000  
448.500000	26.960000  
449.000000	26.499000  
449.500000	27.991000  
450.000000	28.685000  
450.500000	28.942000  
451.000000	28.192000  
451.500000	28.789000  
452.000000	28.824000  
452.500000	29.070000  
453.000000	28.579000  
453.500000	29.820000  
454.000000	29.838000  
454.500000	30.977000  
455.000000	31.025000  
455.500000	31.532000  
456.000000	31.218000  
456.500000	31.708000  
457.000000	32.210000  
457.500000	32.002000  
458.000000	32.843000  
458.500000	33.215000  
459.000000	33.232000  
459.500000	34.318000  
460.000000	34.999000  
460.500000	35.263000  
461.000000	36.998000  
461.500000	36.613000  
462.000000	36.117000  
462.500000	37.186000  
463.000000	38.743000  
463.500000	38.994000  
464.000000	39.700000  
464.500000	40.216000  
465.000000	40.921000  
465.500000	41.846000  
466.000000	43.093000  
466.500000	41.831000  
467.000000	42.276000  
467.500000	43.432000  
468.000000	44.905000  
468.500000	43.876000  
469.000000	43.855000  
469.500000	45.297000  
470.000000	44.673000  
470.500000	45.418000  
471.000000	45.423000  
471.500000	45.365000  
472.000000	45.018000  
472.500000	44.738000  
473.000000	45.096000  
473.500000	45.151000  
474.000000	44.045000  
474.500000	44.259000  
475.000000	43.444000  
475.500000	42.315000  
476.000000	42.511000  
476.500000	42.519000  
477.000000	43.242000  
477.500000	41.600000  
478.000000	41.014000  
478.500000	40.514000  
479.000000	39.265000  
479.500000	39.404000  
480.000000	37.241000  
480.500000	38.319000  
481.000000	37.439000  
481.500000	36.601000  
482.000000	36.537000  
482.500000	34.091000  
483.000000	34.780000  
483.500000	34.307000  
484.000000	33.954000  
484.500000	32.713000  
485.000000	33.274000  
485.500000	32.501000  
486.000000	33.643000  
486.500000	32.867000  
487.000000	31.667000  
487.500000	31.717000  
488.000000	31.692000  
488.500000	30.877000  
489.000000	30.306000  
489.500000	29.948000  
490.000000	29.653000  
490.500000	30.042000  
491.000000	29.828000  
491.500000	28.955000  
492.000000	29.467000  
492.500000	28.584000  
493.000000	28.567000  
493.500000	28.571000  
494.000000	28.633000  
494.500000	28.474000  
495.000000	29.021000  
495.500000	28.790000  
496.000000	28.420000  
496.500000	27.763000  
497.000000	27.693000  
497.500000	27.919000  
498.000000	27.946000  
498.500000	27.062000  
499.000000	27.153000  
499.500000	27.540000  
500.000000	27.079000  
500.500000	27.075000  
501.000000	27.371000  
501.500000	27.209000  
502.000000	27.498000  
502.500000	26.546000  
503.000000	26.690000  
503.500000	26.737000  
504.000000	26.142000  
504.500000	26.280000  
505.000000	25.995000  
505.500000	25.332000  
506.000000	25.115000  
506.500000	25.335000  
507.000000	26.015000  
507.500000	25.289000  
508.000000	25.386000  
508.500000	24.729000  
509.000000	24.599000  
509.500000	25.385000  
510.000000	24.989000  
510.500000	24.429000  
511.000000	24.199000  
511.500000	24.405000  
512.000000	24.903000  
512.500000	23.578000  
513.000000	23.163000  
513.500000	23.181000  
514.000000	23.147000  
514.500000	22.949000  
515.000000	23.171000  
515.500000	23.463000  
516.000000	22.386000  
516.500000	23.287000  
517.000000	23.130000  
517.500000	22.105000  
518.000000	22.300000  
518.500000	21.233000  
519.000000	21.837000  
519.500000	21.787000  
520.000000	21.893000  
520.500000	21.299000  
521.000000	21.050000  
521.500000	20.636000  
522.000000	20.969000  
522.500000	21.114000  
523.000000	20.488000  
523.500000	20.219000  
524.000000	20.207000  
524.500000	20.401000  
525.000000	19.563000  
525.500000	19.710000  
526.000000	19.599000  
526.500000	19.248000  
527.000000	19.163000  
527.500000	18.198000  
528.000000	18.577000  
528.500000	18.752000  
529.000000	19.142000  
529.500000	18.768000  
530.000000	17.492000  
530.500000	17.229000  
531.000000	17.186000  
531.500000	17.184000  
532.000000	17.250000  
532.500000	16.503000  
533.000000	16.276000  
533.500000	16.532000  
534.000000	16.448000  
534.500000	15.498000  
535.000000	15.405000  
535.500000	15.267000  
536.000000	15.657000  
536.500000	15.471000  
537.000000	15.542000  
537.500000	14.259000  
538.000000	14.379000  
538.500000	13.709000  
539.000000	14.270000  
539.500000	14.227000  
540.000000	13.699000  
540.500000	13.462000  
541.000000	13.926000  
541.500000	14.113000  
542.000000	13.336000  
542.500000	12.744000  
543.000000	13.034000  
543.500000	12.736000  
544.000000	12.475000  
544.500000	12.061000  
545.000000	12.299000  
545.500000	12.622000  
546.000000	12.740000  
546.500000	11.933000  
547.000000	12.059000  
547.500000	11.826000  
548.000000	11.672000  
548.500000	11.287000  

