PE FL                   SPECTRUM    ASCII       PEDS        1.60        
  -1
0180F9~1.SP
19/01/24
10:16:34.00
19/01/24
10:16:34.00


548.500000
1









LS45
260.00
10.00
10.00
SCAN
1
16
100
100
0
600
0
1
0
1
7
ON
435 365 
0 0 0
#HDR
-1
-1
#GR
NM
INT 
0.00002384185791015625
0.0
230.000000
0.500000
638
8
999.999000
0.464000
#DATA
230.000000	0.464000   
230.500000	0.774000   
231.000000	0.918000   
231.500000	0.821000   
232.000000	0.903000   
232.500000	0.766000   
233.000000	0.834000   
233.500000	0.875000   
234.000000	0.854000   
234.500000	0.863000   
235.000000	1.034000   
235.500000	1.075000   
236.000000	1.098000   
236.500000	1.089000   
237.000000	1.233000   
237.500000	1.264000   
238.000000	1.482000   
238.500000	1.370000   
239.000000	1.413000   
239.500000	1.716000   
240.000000	1.939000   
240.500000	2.348000   
241.000000	2.453000   
241.500000	2.936000   
242.000000	4.070000   
242.500000	4.650000   
243.000000	4.920000   
243.500000	6.481000   
244.000000	7.934000   
244.500000	9.198000   
245.000000	11.339000  
245.500000	14.332000  
246.000000	17.620000  
246.500000	20.981000  
247.000000	25.403000  
247.500000	31.320000  
248.000000	37.249000  
248.500000	44.459000  
249.000000	51.159000  
249.500000	60.540000  
250.000000	68.771000  
250.500000	80.884000  
251.000000	90.071000  
251.500000	100.249000 
252.000000	112.813000 
252.500000	122.862000 
253.000000	133.412000 
253.500000	143.552000 
254.000000	158.609000 
254.500000	168.205000 
255.000000	181.108000 
255.500000	191.416000 
256.000000	198.789000 
256.500000	206.332000 
257.000000	216.720000 
257.500000	224.209000 
258.000000	235.078000 
258.500000	237.308000 
259.000000	240.074000 
259.500000	241.294000 
260.000000	240.871000 
260.500000	235.661000 
261.000000	229.800000 
261.500000	224.050000 
262.000000	220.738000 
262.500000	211.512000 
263.000000	206.302000 
263.500000	198.027000 
264.000000	183.977000 
264.500000	173.475000 
265.000000	165.724000 
265.500000	156.849000 
266.000000	143.492000 
266.500000	132.917000 
267.000000	120.943000 
267.500000	113.206000 
268.000000	101.228000 
268.500000	91.352000  
269.000000	81.191000  
269.500000	75.589000  
270.000000	66.022000  
270.500000	60.015000  
271.000000	55.328000  
271.500000	50.889000  
272.000000	47.170000  
272.500000	45.611000  
273.000000	46.619000  
273.500000	47.037000  
274.000000	48.006000  
274.500000	49.031000  
275.000000	50.621000  
275.500000	53.483000  
276.000000	56.332000  
276.500000	60.056000  
277.000000	64.470000  
277.500000	68.078999  
278.000000	73.977999  
278.500000	78.220000  
279.000000	82.387000  
279.500000	85.825999  
280.000000	90.552000  
280.500000	92.178000  
281.000000	100.200000 
281.500000	104.049000 
282.000000	104.701000 
282.500000	105.152000 
283.000000	111.688000 
283.500000	109.619000 
284.000000	112.339000 
284.500000	114.267000 
285.000000	112.493000 
285.500000	109.674000 
286.000000	107.703000 
286.500000	102.327000 
287.000000	103.579000 
287.500000	100.596000 
288.000000	96.321000  
288.500000	93.238000  
289.000000	89.617999  
289.500000	83.355999  
290.000000	80.524000  
290.500000	76.361999  
291.000000	70.141000  
291.500000	67.276000  
292.000000	62.710000  
292.500000	57.130000  
293.000000	52.719000  
293.500000	48.516000  
294.000000	43.203000  
294.500000	39.467000  
295.000000	35.207000  
295.500000	30.650000  
296.000000	26.394000  
296.500000	23.397000  
297.000000	21.633000  
297.500000	19.106000  
298.000000	17.317000  
298.500000	15.330000  
299.000000	13.811000  
299.500000	12.430000  
300.000000	10.962000  
300.500000	9.314000   
301.000000	8.490000   
301.500000	7.625000   
302.000000	7.454000   
302.500000	6.841000   
303.000000	6.195000   
303.500000	5.526000   
304.000000	5.302000   
304.500000	4.571000   
305.000000	4.446000   
305.500000	4.311000   
306.000000	4.151000   
306.500000	4.079000   
307.000000	4.183000   
307.500000	3.775000   
308.000000	3.791000   
308.500000	3.792000   
309.000000	3.898000   
309.500000	3.826000   
310.000000	3.693000   
310.500000	3.688000   
311.000000	3.603000   
311.500000	4.236000   
312.000000	4.080000   
312.500000	4.101000   
313.000000	4.366000   
313.500000	4.112000   
314.000000	4.011000   
314.500000	3.765000   
315.000000	4.101000   
315.500000	3.842000   
316.000000	4.351000   
316.500000	4.408000   
317.000000	3.872000   
317.500000	3.735000   
318.000000	4.228000   
318.500000	3.501000   
319.000000	3.683000   
319.500000	3.875000   
320.000000	3.842000   
320.500000	4.218000   
321.000000	3.884000   
321.500000	3.655000   
322.000000	3.759000   
322.500000	3.744000   
323.000000	3.460000   
323.500000	3.629000   
324.000000	3.942000   
324.500000	3.502000   
325.000000	3.591000   
325.500000	3.388000   
326.000000	3.315000   
326.500000	3.885000   
327.000000	4.166000   
327.500000	3.549000   
328.000000	3.648000   
328.500000	3.490000   
329.000000	3.819000   
329.500000	3.711000   
330.000000	3.280000   
330.500000	3.488000   
331.000000	3.398000   
331.500000	3.233000   
332.000000	3.502000   
332.500000	3.183000   
333.000000	2.860000   
333.500000	2.887000   
334.000000	3.042000   
334.500000	3.118000   
335.000000	3.714000   
335.500000	2.974000   
336.000000	3.421000   
336.500000	3.448000   
337.000000	3.209000   
337.500000	3.217000   
338.000000	2.870000   
338.500000	2.790000   
339.000000	3.192000   
339.500000	2.877000   
340.000000	3.061000   
340.500000	3.329000   
341.000000	2.810000   
341.500000	3.033000   
342.000000	2.799000   
342.500000	2.934000   
343.000000	2.845000   
343.500000	2.558000   
344.000000	2.786000   
344.500000	2.703000   
345.000000	2.832000   
345.500000	2.900000   
346.000000	2.904000   
346.500000	3.183000   
347.000000	3.138000   
347.500000	3.248000   
348.000000	2.952000   
348.500000	2.602000   
349.000000	2.703000   
349.500000	2.933000   
350.000000	2.712000   
350.500000	3.095000   
351.000000	2.609000   
351.500000	2.659000   
352.000000	2.633000   
352.500000	2.712000   
353.000000	2.476000   
353.500000	2.816000   
354.000000	2.548000   
354.500000	2.939000   
355.000000	2.430000   
355.500000	2.753000   
356.000000	2.532000   
356.500000	2.167000   
357.000000	2.593000   
357.500000	2.716000   
358.000000	2.713000   
358.500000	2.546000   
359.000000	2.480000   
359.500000	2.270000   
360.000000	2.192000   
360.500000	2.341000   
361.000000	2.319000   
361.500000	2.414000   
362.000000	1.965000   
362.500000	2.450000   
363.000000	2.155000   
363.500000	2.531000   
364.000000	2.610000   
364.500000	2.326000   
365.000000	2.343000   
365.500000	2.314000   
366.000000	2.293000   
366.500000	2.172000   
367.000000	2.273000   
367.500000	2.565000   
368.000000	2.441000   
368.500000	2.503000   
369.000000	2.216000   
369.500000	2.421000   
370.000000	2.185000   
370.500000	2.280000   
371.000000	2.099000   
371.500000	2.054000   
372.000000	2.140000   
372.500000	2.259000   
373.000000	2.196000   
373.500000	2.018000   
374.000000	2.000000   
374.500000	2.186000   
375.000000	2.363000   
375.500000	2.344000   
376.000000	2.069000   
376.500000	1.989000   
377.000000	2.126000   
377.500000	2.261000   
378.000000	2.229000   
378.500000	1.826000   
379.000000	1.889000   
379.500000	1.976000   
380.000000	2.044000   
380.500000	2.083000   
381.000000	2.111000   
381.500000	2.081000   
382.000000	1.840000   
382.500000	1.875000   
383.000000	2.123000   
383.500000	2.062000   
384.000000	2.080000   
384.500000	2.065000   
385.000000	2.051000   
385.500000	1.905000   
386.000000	1.702000   
386.500000	1.858000   
387.000000	2.086000   
387.500000	1.998000   
388.000000	1.805000   
388.500000	2.004000   
389.000000	1.835000   
389.500000	1.993000   
390.000000	1.978000   
390.500000	2.011000   
391.000000	2.572000   
391.500000	2.060000   
392.000000	2.066000   
392.500000	1.996000   
393.000000	2.056000   
393.500000	2.299000   
394.000000	1.929000   
394.500000	2.143000   
395.000000	2.026000   
395.500000	1.940000   
396.000000	1.785000   
396.500000	1.712000   
397.000000	1.859000   
397.500000	2.008000   
398.000000	2.217000   
398.500000	2.098000   
399.000000	2.058000   
399.500000	2.108000   
400.000000	2.131000   
400.500000	1.872000   
401.000000	1.916000   
401.500000	2.300000   
402.000000	2.074000   
402.500000	2.211000   
403.000000	1.820000   
403.500000	1.937000   
404.000000	1.876000   
404.500000	1.779000   
405.000000	1.705000   
405.500000	2.050000   
406.000000	2.253000   
406.500000	2.496000   
407.000000	1.748000   
407.500000	1.911000   
408.000000	1.802000   
408.500000	1.962000   
409.000000	1.927000   
409.500000	2.221000   
410.000000	2.211000   
410.500000	2.165000   
411.000000	2.125000   
411.500000	2.021000   
412.000000	2.476000   
412.500000	2.271000   
413.000000	1.971000   
413.500000	1.954000   
414.000000	2.143000   
414.500000	2.118000   
415.000000	2.394000   
415.500000	2.141000   
416.000000	2.157000   
416.500000	2.195000   
417.000000	2.080000   
417.500000	2.009000   
418.000000	2.158000   
418.500000	2.456000   
419.000000	2.206000   
419.500000	1.865000   
420.000000	2.220000   
420.500000	2.237000   
421.000000	2.178000   
421.500000	2.292000   
422.000000	2.071000   
422.500000	1.987000   
423.000000	2.036000   
423.500000	2.060000   
424.000000	1.920000   
424.500000	2.038000   
425.000000	2.076000   
425.500000	2.087000   
426.000000	2.036000   
426.500000	2.286000   
427.000000	2.221000   
427.500000	2.173000   
428.000000	2.354000   
428.500000	1.826000   
429.000000	2.292000   
429.500000	1.900000   
430.000000	2.113000   
430.500000	2.259000   
431.000000	2.080000   
431.500000	2.448000   
432.000000	2.241000   
432.500000	2.184000   
433.000000	2.199000   
433.500000	2.264000   
434.000000	2.629000   
434.500000	2.364000   
435.000000	2.451000   
435.500000	2.503000   
436.000000	2.379000   
436.500000	2.042000   
437.000000	2.386000   
437.500000	2.291000   
438.000000	2.399000   
438.500000	2.028000   
439.000000	1.917000   
439.500000	2.394000   
440.000000	2.308000   
440.500000	2.181000   
441.000000	1.864000   
441.500000	2.257000   
442.000000	2.325000   
442.500000	2.390000   
443.000000	2.216000   
443.500000	2.269000   
444.000000	2.297000   
444.500000	2.287000   
445.000000	2.428000   
445.500000	2.307000   
446.000000	2.439000   
446.500000	2.439000   
447.000000	2.379000   
447.500000	2.685000   
448.000000	2.746000   
448.500000	2.429000   
449.000000	2.430000   
449.500000	2.332000   
450.000000	2.803000   
450.500000	2.717000   
451.000000	2.646000   
451.500000	2.859000   
452.000000	2.820000   
452.500000	2.816000   
453.000000	2.751000   
453.500000	2.767000   
454.000000	3.200000   
454.500000	3.431000   
455.000000	2.899000   
455.500000	3.140000   
456.000000	2.969000   
456.500000	3.439000   
457.000000	3.244000   
457.500000	3.184000   
458.000000	3.219000   
458.500000	3.332000   
459.000000	3.007000   
459.500000	3.337000   
460.000000	3.745000   
460.500000	3.704000   
461.000000	3.591000   
461.500000	3.660000   
462.000000	3.753000   
462.500000	3.078000   
463.000000	2.869000   
463.500000	2.903000   
464.000000	2.942000   
464.500000	3.010000   
465.000000	3.196000   
465.500000	3.230000   
466.000000	2.910000   
466.500000	2.814000   
467.000000	3.085000   
467.500000	3.220000   
468.000000	3.404000   
468.500000	3.368000   
469.000000	3.835000   
469.500000	3.169000   
470.000000	3.258000   
470.500000	3.577000   
471.000000	3.002000   
471.500000	3.282000   
472.000000	3.563000   
472.500000	3.448000   
473.000000	3.649000   
473.500000	3.165000   
474.000000	3.609000   
474.500000	3.315000   
475.000000	2.967000   
475.500000	3.564000   
476.000000	3.592000   
476.500000	3.441000   
477.000000	3.670000   
477.500000	3.295000   
478.000000	3.390000   
478.500000	3.580000   
479.000000	2.845000   
479.500000	3.775000   
480.000000	4.105000   
480.500000	4.207000   
481.000000	4.017000   
481.500000	3.829000   
482.000000	4.129000   
482.500000	4.227000   
483.000000	4.456000   
483.500000	3.966000   
484.000000	4.902000   
484.500000	5.409000   
485.000000	4.518000   
485.500000	5.282000   
486.000000	5.011000   
486.500000	5.295000   
487.000000	5.503000   
487.500000	5.825000   
488.000000	6.060000   
488.500000	5.876000   
489.000000	5.988000   
489.500000	6.901000   
490.000000	6.667000   
490.500000	7.801000   
491.000000	8.144000   
491.500000	8.643000   
492.000000	9.489000   
492.500000	10.579000  
493.000000	11.980000  
493.500000	13.586000  
494.000000	16.634000  
494.500000	18.432000  
495.000000	21.089000  
495.500000	25.031000  
496.000000	27.298000  
496.500000	32.071000  
497.000000	36.286000  
497.500000	39.505000  
498.000000	44.564000  
498.500000	52.632000  
499.000000	57.928000  
499.500000	66.885000  
500.000000	73.236999  
500.500000	85.249000  
501.000000	95.286000  
501.500000	104.046000 
502.000000	117.535000 
502.500000	125.350000 
503.000000	140.641000 
503.500000	150.637000 
504.000000	165.263000 
504.500000	177.857000 
505.000000	199.559000 
505.500000	217.321000 
506.000000	237.216000 
506.500000	253.180000 
507.000000	274.946000 
507.500000	297.687000 
508.000000	324.315000 
508.500000	343.165000 
509.000000	375.109000 
509.500000	405.734000 
510.000000	452.409000 
510.500000	478.755000 
511.000000	515.782000 
511.500000	550.172000 
512.000000	601.400000 
512.500000	636.946000 
513.000000	680.676000 
513.500000	707.760000 
514.000000	747.057000 
514.500000	782.751000 
515.000000	821.579000 
515.500000	848.058000 
516.000000	883.595000 
516.500000	909.634000 
517.000000	946.165000 
517.500000	964.790000 
518.000000	988.315000 
518.500000	999.559000 
519.000000	999.999000 
519.500000	999.999000 
520.000000	999.999000 
520.500000	999.999000 
521.000000	999.999000 
521.500000	999.999000 
522.000000	999.113000 
522.500000	979.573000 
523.000000	960.026000 
523.500000	941.426000 
524.000000	911.513000 
524.500000	881.522000 
525.000000	847.724000 
525.500000	825.626000 
526.000000	784.272000 
526.500000	747.102000 
527.000000	715.559999 
527.500000	676.613000 
528.000000	638.175000 
528.500000	596.223000 
529.000000	548.933000 
529.500000	513.332000 
530.000000	479.920000 
530.500000	436.619000 
531.000000	394.040000 
531.500000	367.072000 
532.000000	344.390000 
532.500000	311.546000 
533.000000	284.034000 
533.500000	266.812000 
534.000000	248.299000 
534.500000	228.756000 
535.000000	218.342000 
535.500000	189.559000 
536.000000	176.989000 
536.500000	158.741000 
537.000000	146.477000 
537.500000	135.039000 
538.000000	115.597000 
538.500000	106.814000 
539.000000	97.805000  
539.500000	86.733999  
540.000000	77.163000  
540.500000	69.623000  
541.000000	62.203000  
541.500000	55.147000  
542.000000	50.406000  
542.500000	43.849000  
543.000000	41.183000  
543.500000	37.127000  
544.000000	36.138000  
544.500000	31.594000  
545.000000	29.438000  
545.500000	27.911000  
546.000000	28.244000  
546.500000	28.193000  
547.000000	28.285000  
547.500000	28.651000  
548.000000	29.370000  
548.500000	30.275000  

