PE FL                   SPECTRUM    ASCII       PEDS        1.60        
  -1
0180F1~1.SP
19/01/24
10:18:05.00
19/01/24
10:18:05.00


548.500000
1









LS45
270.00
10.00
10.00
SCAN
1
16
100
100
0
600
0
1
0
1
7
ON
435 365 
0 0 0
#HDR
-1
-1
#GR
NM
INT 
0.00002384185791015625
0.0
230.000000
0.500000
638
8
810.831000
0.470000
#DATA
230.000000	0.588000   
230.500000	0.651000   
231.000000	0.742000   
231.500000	0.661000   
232.000000	0.576000   
232.500000	0.524000   
233.000000	0.609000   
233.500000	0.658000   
234.000000	0.728000   
234.500000	0.470000   
235.000000	0.686000   
235.500000	0.757000   
236.000000	0.534000   
236.500000	0.711000   
237.000000	0.738000   
237.500000	0.555000   
238.000000	0.595000   
238.500000	0.622000   
239.000000	0.770000   
239.500000	0.982000   
240.000000	0.711000   
240.500000	0.823000   
241.000000	0.892000   
241.500000	0.723000   
242.000000	0.816999   
242.500000	0.937999   
243.000000	1.075000   
243.500000	1.272000   
244.000000	0.999000   
244.500000	0.936000   
245.000000	1.247000   
245.500000	1.123000   
246.000000	1.004000   
246.500000	1.229000   
247.000000	1.500000   
247.500000	1.500000   
248.000000	1.659000   
248.500000	1.923000   
249.000000	2.543000   
249.500000	2.759000   
250.000000	3.319000   
250.500000	3.967000   
251.000000	4.929000   
251.500000	6.736000   
252.000000	7.934000   
252.500000	9.037000   
253.000000	10.870000  
253.500000	12.998000  
254.000000	17.332000  
254.500000	21.607000  
255.000000	26.037000  
255.500000	31.626000  
256.000000	39.201000  
256.500000	45.490000  
257.000000	53.747000  
257.500000	63.188000  
258.000000	73.668000  
258.500000	86.063999  
259.000000	95.159000  
259.500000	106.034000 
260.000000	116.718000 
260.500000	133.626000 
261.000000	146.917000 
261.500000	161.754000 
262.000000	176.086000 
262.500000	190.466000 
263.000000	202.866000 
263.500000	220.065000 
264.000000	230.874000 
264.500000	244.904000 
265.000000	258.656000 
265.500000	270.449000 
266.000000	276.612000 
266.500000	285.272000 
267.000000	293.874000 
267.500000	299.781000 
268.000000	305.882000 
268.500000	309.225000 
269.000000	306.670000 
269.500000	309.233000 
270.000000	305.629000 
270.500000	299.752000 
271.000000	293.625000 
271.500000	286.127000 
272.000000	277.671000 
272.500000	266.423000 
273.000000	258.989000 
273.500000	238.902000 
274.000000	227.679000 
274.500000	217.479000 
275.000000	201.898000 
275.500000	188.307000 
276.000000	172.854000 
276.500000	156.826000 
277.000000	142.699000 
277.500000	129.850000 
278.000000	115.404000 
278.500000	104.439000 
279.000000	95.477999  
279.500000	86.976000  
280.000000	73.801000  
280.500000	68.715999  
281.000000	61.604000  
281.500000	56.639000  
282.000000	51.838000  
282.500000	48.908000  
283.000000	46.960000  
283.500000	46.081000  
284.000000	44.244000  
284.500000	45.563000  
285.000000	46.760000  
285.500000	50.097000  
286.000000	51.653000  
286.500000	53.136000  
287.000000	59.224000  
287.500000	62.712000  
288.000000	67.161000  
288.500000	69.962000  
289.000000	75.824000  
289.500000	81.741000  
290.000000	85.534000  
290.500000	88.250000  
291.000000	93.528000  
291.500000	98.155000  
292.000000	99.755000  
292.500000	102.927000 
293.000000	108.735000 
293.500000	111.178000 
294.000000	114.889000 
294.500000	120.174000 
295.000000	116.568000 
295.500000	119.988000 
296.000000	117.756000 
296.500000	117.769000 
297.000000	117.953000 
297.500000	116.851000 
298.000000	118.062000 
298.500000	113.582000 
299.000000	111.014000 
299.500000	108.408000 
300.000000	106.119000 
300.500000	101.879000 
301.000000	96.690000  
301.500000	96.014000  
302.000000	89.755000  
302.500000	83.614999  
303.000000	78.685000  
303.500000	74.310000  
304.000000	68.206000  
304.500000	64.691999  
305.000000	58.851000  
305.500000	54.837000  
306.000000	49.653000  
306.500000	45.099000  
307.000000	39.416000  
307.500000	37.228000  
308.000000	34.583000  
308.500000	29.642000  
309.000000	26.929000  
309.500000	23.795000  
310.000000	21.111000  
310.500000	18.643000  
311.000000	16.724000  
311.500000	14.080000  
312.000000	12.309000  
312.500000	11.861000  
313.000000	10.755000  
313.500000	9.237000   
314.000000	8.737000   
314.500000	7.724000   
315.000000	7.186000   
315.500000	6.635000   
316.000000	6.665000   
316.500000	6.009000   
317.000000	5.757000   
317.500000	5.930000   
318.000000	5.897000   
318.500000	5.241000   
319.000000	5.566000   
319.500000	5.347000   
320.000000	5.443000   
320.500000	5.076000   
321.000000	5.012000   
321.500000	5.328000   
322.000000	5.091000   
322.500000	4.997000   
323.000000	5.148000   
323.500000	5.705000   
324.000000	5.656000   
324.500000	5.607000   
325.000000	5.160000   
325.500000	5.665000   
326.000000	5.164000   
326.500000	5.397000   
327.000000	5.666000   
327.500000	5.507000   
328.000000	5.575000   
328.500000	5.583000   
329.000000	5.469000   
329.500000	5.365000   
330.000000	5.333000   
330.500000	5.130000   
331.000000	5.442000   
331.500000	5.736000   
332.000000	4.908000   
332.500000	5.517000   
333.000000	5.360000   
333.500000	5.193000   
334.000000	5.072000   
334.500000	4.888000   
335.000000	5.265000   
335.500000	5.160000   
336.000000	5.259000   
336.500000	4.487000   
337.000000	4.431000   
337.500000	4.665000   
338.000000	4.697000   
338.500000	4.720000   
339.000000	4.811000   
339.500000	4.374000   
340.000000	4.368000   
340.500000	4.665000   
341.000000	4.233000   
341.500000	4.583000   
342.000000	4.873000   
342.500000	4.575000   
343.000000	4.450000   
343.500000	4.421000   
344.000000	3.953000   
344.500000	3.961000   
345.000000	3.840000   
345.500000	4.067000   
346.000000	4.630000   
346.500000	3.634000   
347.000000	3.792000   
347.500000	4.460000   
348.000000	3.931000   
348.500000	3.939000   
349.000000	3.883000   
349.500000	4.214000   
350.000000	3.884000   
350.500000	3.743000   
351.000000	3.552000   
351.500000	3.686000   
352.000000	3.952000   
352.500000	3.723000   
353.000000	3.523000   
353.500000	3.774000   
354.000000	3.403000   
354.500000	3.575000   
355.000000	3.447000   
355.500000	3.486000   
356.000000	3.678000   
356.500000	3.662000   
357.000000	3.389000   
357.500000	3.260000   
358.000000	3.206000   
358.500000	3.368000   
359.000000	3.241000   
359.500000	3.318000   
360.000000	2.958000   
360.500000	2.866000   
361.000000	3.202000   
361.500000	3.041000   
362.000000	2.944000   
362.500000	3.110000   
363.000000	2.902000   
363.500000	3.109000   
364.000000	3.367000   
364.500000	3.118000   
365.000000	2.708000   
365.500000	2.888000   
366.000000	2.693000   
366.500000	2.699000   
367.000000	3.074000   
367.500000	2.955000   
368.000000	2.588000   
368.500000	2.936000   
369.000000	2.919000   
369.500000	2.829000   
370.000000	2.636000   
370.500000	2.277000   
371.000000	2.396000   
371.500000	2.374000   
372.000000	2.694000   
372.500000	2.164000   
373.000000	2.421000   
373.500000	2.297000   
374.000000	2.609000   
374.500000	2.861000   
375.000000	2.257000   
375.500000	2.543000   
376.000000	2.383000   
376.500000	2.496000   
377.000000	2.539000   
377.500000	2.474000   
378.000000	2.715000   
378.500000	2.457000   
379.000000	2.197000   
379.500000	2.656000   
380.000000	2.387000   
380.500000	2.267000   
381.000000	2.370000   
381.500000	2.269000   
382.000000	2.442000   
382.500000	2.430000   
383.000000	2.388000   
383.500000	2.256000   
384.000000	2.248000   
384.500000	2.484000   
385.000000	2.654000   
385.500000	2.298000   
386.000000	1.856000   
386.500000	2.239000   
387.000000	2.309000   
387.500000	2.145000   
388.000000	1.882000   
388.500000	1.960000   
389.000000	2.121000   
389.500000	2.280000   
390.000000	1.963000   
390.500000	2.224000   
391.000000	2.236000   
391.500000	2.350000   
392.000000	1.981000   
392.500000	2.053000   
393.000000	2.345000   
393.500000	2.091000   
394.000000	2.036000   
394.500000	2.346000   
395.000000	2.283000   
395.500000	2.035000   
396.000000	1.963000   
396.500000	1.968000   
397.000000	1.994000   
397.500000	2.148000   
398.000000	1.948000   
398.500000	2.043000   
399.000000	1.948000   
399.500000	1.712000   
400.000000	1.679000   
400.500000	2.140000   
401.000000	1.953000   
401.500000	1.658000   
402.000000	2.095000   
402.500000	2.075000   
403.000000	1.953000   
403.500000	1.902000   
404.000000	2.037000   
404.500000	1.938000   
405.000000	1.887000   
405.500000	1.639000   
406.000000	1.840000   
406.500000	2.063000   
407.000000	1.904000   
407.500000	2.323000   
408.000000	2.387000   
408.500000	1.873000   
409.000000	1.852000   
409.500000	2.210000   
410.000000	2.089000   
410.500000	1.932000   
411.000000	1.829000   
411.500000	1.848000   
412.000000	2.006000   
412.500000	2.109000   
413.000000	2.399000   
413.500000	2.065000   
414.000000	1.846000   
414.500000	2.299000   
415.000000	2.215000   
415.500000	2.144000   
416.000000	2.029000   
416.500000	1.907000   
417.000000	2.039000   
417.500000	1.789000   
418.000000	1.778000   
418.500000	2.069000   
419.000000	1.638000   
419.500000	1.874000   
420.000000	2.263000   
420.500000	2.110000   
421.000000	1.802000   
421.500000	1.779000   
422.000000	1.793000   
422.500000	2.225000   
423.000000	2.012000   
423.500000	1.595000   
424.000000	1.865000   
424.500000	1.965000   
425.000000	1.611000   
425.500000	1.992000   
426.000000	1.834000   
426.500000	1.763000   
427.000000	1.797000   
427.500000	1.918000   
428.000000	1.667000   
428.500000	1.940000   
429.000000	1.697000   
429.500000	1.674000   
430.000000	1.779000   
430.500000	2.015000   
431.000000	1.930000   
431.500000	1.950000   
432.000000	1.972000   
432.500000	1.968000   
433.000000	1.855000   
433.500000	1.910000   
434.000000	1.787000   
434.500000	1.734000   
435.000000	1.594000   
435.500000	1.803000   
436.000000	1.989000   
436.500000	2.600000   
437.000000	1.950000   
437.500000	1.673000   
438.000000	1.914000   
438.500000	1.871000   
439.000000	1.920000   
439.500000	1.618000   
440.000000	1.765000   
440.500000	2.189000   
441.000000	2.032000   
441.500000	2.140000   
442.000000	1.668000   
442.500000	2.130000   
443.000000	1.985000   
443.500000	1.941000   
444.000000	1.965000   
444.500000	1.780000   
445.000000	2.102000   
445.500000	1.897000   
446.000000	2.063000   
446.500000	1.730000   
447.000000	1.817000   
447.500000	2.229000   
448.000000	2.031000   
448.500000	2.118000   
449.000000	2.084000   
449.500000	1.971000   
450.000000	2.062000   
450.500000	2.214000   
451.000000	2.328000   
451.500000	2.463000   
452.000000	2.140000   
452.500000	2.182000   
453.000000	2.546000   
453.500000	2.396000   
454.000000	2.394000   
454.500000	2.608000   
455.000000	2.385000   
455.500000	2.276000   
456.000000	2.395000   
456.500000	2.386000   
457.000000	2.608000   
457.500000	2.300000   
458.000000	2.308000   
458.500000	2.687000   
459.000000	2.404000   
459.500000	2.472000   
460.000000	2.514000   
460.500000	2.428000   
461.000000	2.217000   
461.500000	2.371000   
462.000000	2.302000   
462.500000	2.489000   
463.000000	2.365000   
463.500000	2.585000   
464.000000	2.575000   
464.500000	2.532000   
465.000000	2.327000   
465.500000	2.340000   
466.000000	2.436000   
466.500000	2.155000   
467.000000	2.426000   
467.500000	2.155000   
468.000000	2.081000   
468.500000	1.993000   
469.000000	2.390000   
469.500000	2.469000   
470.000000	2.181000   
470.500000	2.268000   
471.000000	2.349000   
471.500000	2.554000   
472.000000	2.213000   
472.500000	2.305000   
473.000000	2.409000   
473.500000	2.383000   
474.000000	2.358000   
474.500000	2.397000   
475.000000	2.254000   
475.500000	2.494000   
476.000000	2.548000   
476.500000	2.326000   
477.000000	2.717000   
477.500000	2.652000   
478.000000	2.602000   
478.500000	2.466000   
479.000000	2.637000   
479.500000	2.650000   
480.000000	2.909000   
480.500000	2.848000   
481.000000	2.764000   
481.500000	2.765000   
482.000000	3.008000   
482.500000	3.227000   
483.000000	2.603000   
483.500000	2.864000   
484.000000	3.095000   
484.500000	3.192000   
485.000000	3.444000   
485.500000	3.224000   
486.000000	3.401000   
486.500000	2.951000   
487.000000	3.499000   
487.500000	3.786000   
488.000000	3.664000   
488.500000	3.502000   
489.000000	3.459000   
489.500000	3.513000   
490.000000	4.047000   
490.500000	4.172000   
491.000000	3.696000   
491.500000	3.815000   
492.000000	4.232000   
492.500000	3.722000   
493.000000	4.816000   
493.500000	4.456000   
494.000000	3.986000   
494.500000	4.547000   
495.000000	4.425000   
495.500000	4.245000   
496.000000	4.153000   
496.500000	4.555000   
497.000000	4.655000   
497.500000	4.529000   
498.000000	4.685000   
498.500000	4.484000   
499.000000	4.686000   
499.500000	4.879000   
500.000000	4.686000   
500.500000	4.452000   
501.000000	4.346000   
501.500000	4.194000   
502.000000	4.501000   
502.500000	4.870000   
503.000000	4.559000   
503.500000	4.304000   
504.000000	4.184000   
504.500000	3.907000   
505.000000	4.180000   
505.500000	4.702000   
506.000000	4.786000   
506.500000	4.295000   
507.000000	5.070000   
507.500000	4.886000   
508.000000	4.772000   
508.500000	5.277000   
509.000000	5.588000   
509.500000	5.869000   
510.000000	6.916000   
510.500000	8.757000   
511.000000	8.714000   
511.500000	10.124000  
512.000000	12.223000  
512.500000	13.767000  
513.000000	16.133000  
513.500000	17.939000  
514.000000	21.858000  
514.500000	24.258000  
515.000000	29.706000  
515.500000	31.695000  
516.000000	36.974000  
516.500000	43.115000  
517.000000	51.118000  
517.500000	56.044000  
518.000000	63.513000  
518.500000	70.020000  
519.000000	81.129000  
519.500000	89.889000  
520.000000	100.855000 
520.500000	108.422000 
521.000000	121.426000 
521.500000	132.472000 
522.000000	150.100000 
522.500000	162.831000 
523.000000	180.953000 
523.500000	199.055000 
524.000000	221.762000 
524.500000	240.940000 
525.000000	259.073000 
525.500000	278.273000 
526.000000	304.394000 
526.500000	334.791000 
527.000000	358.319000 
527.500000	379.055000 
528.000000	407.459000 
528.500000	433.015000 
529.000000	458.585000 
529.500000	485.578000 
530.000000	511.508000 
530.500000	541.061000 
531.000000	565.498000 
531.500000	589.285000 
532.000000	619.388000 
532.500000	644.134000 
533.000000	671.765000 
533.500000	692.014000 
534.000000	716.830000 
534.500000	734.764000 
535.000000	749.738000 
535.500000	769.823000 
536.000000	779.813000 
536.500000	791.721000 
537.000000	804.079000 
537.500000	808.672000 
538.000000	809.249000 
538.500000	802.342000 
539.000000	808.412000 
539.500000	810.831000 
540.000000	804.350000 
540.500000	793.269000 
541.000000	785.244000 
541.500000	770.448000 
542.000000	766.662000 
542.500000	739.996000 
543.000000	732.495000 
543.500000	710.628000 
544.000000	694.170000 
544.500000	668.871000 
545.000000	649.505000 
545.500000	630.738000 
546.000000	610.465000 
546.500000	578.106000 
547.000000	543.615000 
547.500000	518.222000 
548.000000	499.118000 
548.500000	465.606000 

