PE FL                   SPECTRUM    ASCII       PEDS        1.60        
  -1
0124DI~3.SP
19/01/24
10:13:34.00
19/01/24
10:13:34.00


548.500000
1









LS45
240.00
10.00
10.00
SCAN
1
16
100
100
0
600
0
1
0
1
7
ON
435 365 
0 0 0
#HDR
-1
-1
#GR
NM
INT 
0.00002384185791015625
0.0
230.000000
0.500000
638
8
999.999000
2.253000
#DATA
230.000000	23.029000  
230.500000	22.160000  
231.000000	26.013000  
231.500000	30.660000  
232.000000	34.674000  
232.500000	39.685000  
233.000000	40.864000  
233.500000	44.318000  
234.000000	47.855000  
234.500000	54.228000  
235.000000	54.648000  
235.500000	61.041000  
236.000000	65.530000  
236.500000	69.233999  
237.000000	72.414000  
237.500000	75.495000  
238.000000	78.717000  
238.500000	81.056000  
239.000000	85.247000  
239.500000	87.608000  
240.000000	89.197000  
240.500000	88.565000  
241.000000	92.129000  
241.500000	94.135000  
242.000000	94.247000  
242.500000	94.163000  
243.000000	92.693000  
243.500000	90.837999  
244.000000	89.834999  
244.500000	87.366000  
245.000000	82.563000  
245.500000	82.889000  
246.000000	80.706999  
246.500000	77.275000  
247.000000	73.330000  
247.500000	68.252000  
248.000000	66.621000  
248.500000	63.837000  
249.000000	61.194000  
249.500000	56.878000  
250.000000	55.424000  
250.500000	52.701000  
251.000000	50.963000  
251.500000	47.914000  
252.000000	47.725000  
252.500000	45.402000  
253.000000	50.987000  
253.500000	49.732000  
254.000000	48.012000  
254.500000	48.885000  
255.000000	49.372000  
255.500000	53.059000  
256.000000	54.470000  
256.500000	54.345000  
257.000000	56.770000  
257.500000	57.515000  
258.000000	59.333000  
258.500000	62.516000  
259.000000	63.503000  
259.500000	66.736999  
260.000000	71.598000  
260.500000	71.039000  
261.000000	70.863000  
261.500000	73.318000  
262.000000	73.277000  
262.500000	74.090999  
263.000000	72.116000  
263.500000	75.426000  
264.000000	74.784000  
264.500000	72.218000  
265.000000	72.024000  
265.500000	68.991000  
266.000000	63.008000  
266.500000	63.208000  
267.000000	61.908000  
267.500000	60.482000  
268.000000	57.908000  
268.500000	52.861000  
269.000000	50.403000  
269.500000	45.868000  
270.000000	45.127000  
270.500000	42.726000  
271.000000	39.286000  
271.500000	34.827000  
272.000000	31.373000  
272.500000	27.792000  
273.000000	26.079000  
273.500000	21.996000  
274.000000	19.747000  
274.500000	16.902000  
275.000000	14.555000  
275.500000	12.590000  
276.000000	11.723000  
276.500000	10.737000  
277.000000	8.980000   
277.500000	8.202000   
278.000000	7.045000   
278.500000	5.932000   
279.000000	5.752000   
279.500000	4.421000   
280.000000	3.830000   
280.500000	3.873000   
281.000000	4.120000   
281.500000	3.555000   
282.000000	2.595000   
282.500000	2.606000   
283.000000	2.765000   
283.500000	2.593000   
284.000000	2.825000   
284.500000	2.391000   
285.000000	2.682000   
285.500000	2.331000   
286.000000	3.170000   
286.500000	2.974000   
287.000000	2.584000   
287.500000	3.186000   
288.000000	3.128000   
288.500000	3.145000   
289.000000	2.939000   
289.500000	2.541000   
290.000000	2.947000   
290.500000	2.964000   
291.000000	3.141000   
291.500000	2.928000   
292.000000	2.253000   
292.500000	3.164000   
293.000000	2.862000   
293.500000	2.980000   
294.000000	2.915000   
294.500000	3.108000   
295.000000	3.281000   
295.500000	2.929000   
296.000000	3.056000   
296.500000	2.927000   
297.000000	2.665000   
297.500000	2.862000   
298.000000	3.383000   
298.500000	3.057000   
299.000000	3.506000   
299.500000	2.873000   
300.000000	3.230000   
300.500000	3.174000   
301.000000	3.413000   
301.500000	3.368000   
302.000000	3.188000   
302.500000	3.063000   
303.000000	2.834000   
303.500000	3.282000   
304.000000	3.373000   
304.500000	2.991000   
305.000000	3.309000   
305.500000	3.274000   
306.000000	3.158000   
306.500000	3.030000   
307.000000	3.608000   
307.500000	3.625000   
308.000000	3.413000   
308.500000	3.491000   
309.000000	3.462000   
309.500000	3.061000   
310.000000	3.512000   
310.500000	3.475000   
311.000000	3.620000   
311.500000	3.596000   
312.000000	3.548000   
312.500000	3.458000   
313.000000	3.875000   
313.500000	3.621000   
314.000000	3.773000   
314.500000	4.048000   
315.000000	3.718000   
315.500000	3.688000   
316.000000	3.747000   
316.500000	2.949000   
317.000000	3.313000   
317.500000	3.320000   
318.000000	3.743000   
318.500000	3.072000   
319.000000	3.587000   
319.500000	3.804000   
320.000000	3.767000   
320.500000	3.977000   
321.000000	3.411000   
321.500000	3.292000   
322.000000	3.291000   
322.500000	3.449000   
323.000000	4.133000   
323.500000	3.990000   
324.000000	3.626000   
324.500000	3.989000   
325.000000	3.863000   
325.500000	3.335000   
326.000000	3.550000   
326.500000	4.050000   
327.000000	3.773000   
327.500000	3.858000   
328.000000	3.341000   
328.500000	3.585000   
329.000000	3.608000   
329.500000	3.426000   
330.000000	3.855000   
330.500000	4.104000   
331.000000	3.911000   
331.500000	4.123000   
332.000000	3.778000   
332.500000	3.543000   
333.000000	3.487000   
333.500000	3.966000   
334.000000	3.502000   
334.500000	3.983000   
335.000000	3.970000   
335.500000	4.273000   
336.000000	4.193000   
336.500000	3.835000   
337.000000	3.837000   
337.500000	3.577000   
338.000000	3.805000   
338.500000	4.065000   
339.000000	3.472000   
339.500000	4.052000   
340.000000	3.715000   
340.500000	3.266000   
341.000000	3.444000   
341.500000	3.093000   
342.000000	3.057000   
342.500000	3.432000   
343.000000	3.433000   
343.500000	3.346000   
344.000000	3.567000   
344.500000	3.344000   
345.000000	3.308000   
345.500000	3.200000   
346.000000	3.271000   
346.500000	3.619000   
347.000000	3.272000   
347.500000	3.323000   
348.000000	3.776000   
348.500000	3.858000   
349.000000	4.006000   
349.500000	3.807000   
350.000000	3.725000   
350.500000	3.634000   
351.000000	3.394000   
351.500000	3.592000   
352.000000	3.531000   
352.500000	3.610000   
353.000000	3.950000   
353.500000	3.773000   
354.000000	3.095000   
354.500000	3.158000   
355.000000	3.256000   
355.500000	3.174000   
356.000000	3.111000   
356.500000	2.979000   
357.000000	2.989000   
357.500000	3.466000   
358.000000	3.450000   
358.500000	3.298000   
359.000000	3.196000   
359.500000	3.160000   
360.000000	3.359000   
360.500000	2.906000   
361.000000	3.383000   
361.500000	3.311000   
362.000000	3.789000   
362.500000	2.997000   
363.000000	3.258000   
363.500000	2.677000   
364.000000	2.866000   
364.500000	3.201000   
365.000000	3.269000   
365.500000	3.262000   
366.000000	3.589000   
366.500000	3.552000   
367.000000	3.680000   
367.500000	3.608000   
368.000000	3.340000   
368.500000	2.772000   
369.000000	2.861000   
369.500000	3.302000   
370.000000	2.956000   
370.500000	2.912000   
371.000000	2.926000   
371.500000	3.051000   
372.000000	3.155000   
372.500000	3.218000   
373.000000	2.873000   
373.500000	2.543000   
374.000000	2.892000   
374.500000	3.242000   
375.000000	3.263000   
375.500000	3.266000   
376.000000	3.299000   
376.500000	2.932000   
377.000000	3.117000   
377.500000	2.862000   
378.000000	3.060000   
378.500000	3.173000   
379.000000	3.585000   
379.500000	2.820000   
380.000000	3.129000   
380.500000	3.010000   
381.000000	2.726000   
381.500000	2.788000   
382.000000	3.507000   
382.500000	3.463000   
383.000000	2.929000   
383.500000	2.735000   
384.000000	2.986000   
384.500000	2.591000   
385.000000	3.223000   
385.500000	3.970000   
386.000000	2.787000   
386.500000	2.828000   
387.000000	2.971000   
387.500000	2.989000   
388.000000	2.994000   
388.500000	2.971000   
389.000000	3.322000   
389.500000	3.247000   
390.000000	3.515000   
390.500000	3.046000   
391.000000	3.217000   
391.500000	2.986000   
392.000000	2.619000   
392.500000	3.110000   
393.000000	3.034000   
393.500000	2.971000   
394.000000	3.341000   
394.500000	3.225000   
395.000000	3.043000   
395.500000	3.193000   
396.000000	2.626000   
396.500000	2.620000   
397.000000	3.121000   
397.500000	3.774000   
398.000000	3.307000   
398.500000	3.322000   
399.000000	3.544000   
399.500000	3.477000   
400.000000	3.087000   
400.500000	3.010000   
401.000000	3.697000   
401.500000	3.302000   
402.000000	3.550000   
402.500000	3.182000   
403.000000	3.137000   
403.500000	2.907000   
404.000000	2.917000   
404.500000	3.651000   
405.000000	3.168000   
405.500000	3.583000   
406.000000	3.410000   
406.500000	3.994000   
407.000000	3.835000   
407.500000	3.572000   
408.000000	3.129000   
408.500000	3.305000   
409.000000	3.207000   
409.500000	3.259000   
410.000000	3.134000   
410.500000	3.200000   
411.000000	3.212000   
411.500000	3.239000   
412.000000	3.321000   
412.500000	3.874000   
413.000000	3.491000   
413.500000	3.703000   
414.000000	3.874000   
414.500000	3.934000   
415.000000	3.327000   
415.500000	3.040000   
416.000000	3.510000   
416.500000	3.855000   
417.000000	3.580000   
417.500000	3.398000   
418.000000	3.257000   
418.500000	3.481000   
419.000000	3.317000   
419.500000	3.731000   
420.000000	3.552000   
420.500000	3.878000   
421.000000	3.609000   
421.500000	3.618000   
422.000000	3.545000   
422.500000	3.724000   
423.000000	3.598000   
423.500000	3.462000   
424.000000	3.600000   
424.500000	3.720000   
425.000000	3.501000   
425.500000	3.370000   
426.000000	3.653000   
426.500000	4.025000   
427.000000	3.875000   
427.500000	3.243000   
428.000000	3.722000   
428.500000	4.007000   
429.000000	3.900000   
429.500000	4.693000   
430.000000	3.764000   
430.500000	3.929000   
431.000000	3.543000   
431.500000	3.464000   
432.000000	3.524000   
432.500000	3.222000   
433.000000	3.560000   
433.500000	3.910000   
434.000000	4.268000   
434.500000	4.453000   
435.000000	4.498000   
435.500000	4.039000   
436.000000	4.238000   
436.500000	4.149000   
437.000000	4.333000   
437.500000	4.281000   
438.000000	4.083000   
438.500000	4.207000   
439.000000	4.589000   
439.500000	4.265000   
440.000000	4.367000   
440.500000	4.307000   
441.000000	5.093000   
441.500000	4.544000   
442.000000	4.163000   
442.500000	4.136000   
443.000000	4.689000   
443.500000	4.881000   
444.000000	4.843000   
444.500000	5.129000   
445.000000	5.159000   
445.500000	5.342000   
446.000000	5.002000   
446.500000	5.671000   
447.000000	5.826000   
447.500000	6.375000   
448.000000	6.422000   
448.500000	6.580000   
449.000000	7.279000   
449.500000	8.215000   
450.000000	8.949000   
450.500000	10.542000  
451.000000	11.087000  
451.500000	12.043000  
452.000000	12.142000  
452.500000	15.102000  
453.000000	17.531000  
453.500000	19.227000  
454.000000	20.481000  
454.500000	24.074000  
455.000000	26.394000  
455.500000	31.606000  
456.000000	35.693000  
456.500000	42.918000  
457.000000	47.963000  
457.500000	54.372000  
458.000000	62.247000  
458.500000	67.405000  
459.000000	78.672000  
459.500000	91.268000  
460.000000	102.019000 
460.500000	107.918000 
461.000000	122.694000 
461.500000	140.452000 
462.000000	158.092000 
462.500000	168.448000 
463.000000	188.933000 
463.500000	202.202000 
464.000000	223.106000 
464.500000	239.832000 
465.000000	267.333000 
465.500000	280.542000 
466.000000	303.000000 
466.500000	318.220000 
467.000000	343.322000 
467.500000	370.181000 
468.000000	396.524000 
468.500000	417.829000 
469.000000	440.292000 
469.500000	444.883000 
470.000000	482.038000 
470.500000	504.633000 
471.000000	527.277000 
471.500000	548.499000 
472.000000	584.885000 
472.500000	608.094000 
473.000000	627.139000 
473.500000	644.414000 
474.000000	664.844000 
474.500000	686.250000 
475.000000	712.217000 
475.500000	746.163000 
476.000000	765.231000 
476.500000	786.472000 
477.000000	810.174000 
477.500000	843.083999 
478.000000	862.422000 
478.500000	883.279000 
479.000000	903.389000 
479.500000	921.535999 
480.000000	936.464000 
480.500000	944.171000 
481.000000	957.464000 
481.500000	968.441000 
482.000000	979.851000 
482.500000	988.338000 
483.000000	999.999000 
483.500000	999.999000 
484.000000	999.999000 
484.500000	999.999000 
485.000000	995.388000 
485.500000	980.085000 
486.000000	982.785999 
486.500000	951.152000 
487.000000	936.268000 
487.500000	915.952000 
488.000000	897.042000 
488.500000	868.986000 
489.000000	844.684000 
489.500000	806.200000 
490.000000	786.142000 
490.500000	755.978000 
491.000000	725.665000 
491.500000	686.402000 
492.000000	660.107000 
492.500000	631.402000 
493.000000	595.742000 
493.500000	555.176000 
494.000000	533.533000 
494.500000	484.502000 
495.000000	460.190000 
495.500000	430.226000 
496.000000	399.647000 
496.500000	365.669000 
497.000000	323.958000 
497.500000	306.104000 
498.000000	296.477000 
498.500000	275.235000 
499.000000	250.977000 
499.500000	233.399000 
500.000000	211.662000 
500.500000	204.285000 
501.000000	187.791000 
501.500000	172.564000 
502.000000	158.301000 
502.500000	141.688000 
503.000000	134.718000 
503.500000	128.887000 
504.000000	115.593000 
504.500000	108.218000 
505.000000	106.352000 
505.500000	103.091000 
506.000000	100.517000 
506.500000	100.468000 
507.000000	101.575000 
507.500000	104.358000 
508.000000	109.228000 
508.500000	113.300000 
509.000000	116.710000 
509.500000	120.685000 
510.000000	123.406000 
510.500000	125.661000 
511.000000	129.942000 
511.500000	131.851000 
512.000000	137.033000 
512.500000	144.497000 
513.000000	146.661000 
513.500000	151.689000 
514.000000	156.931000 
514.500000	160.353000 
515.000000	161.652000 
515.500000	166.689000 
516.000000	167.155000 
516.500000	170.394000 
517.000000	176.634000 
517.500000	182.787000 
518.000000	187.728000 
518.500000	186.366000 
519.000000	190.733000 
519.500000	192.584000 
520.000000	201.187000 
520.500000	205.583000 
521.000000	208.408000 
521.500000	212.064000 
522.000000	218.716000 
522.500000	220.838000 
523.000000	223.643000 
523.500000	224.348000 
524.000000	228.867000 
524.500000	232.189000 
525.000000	233.912000 
525.500000	232.526000 
526.000000	235.349000 
526.500000	241.053000 
527.000000	240.604000 
527.500000	233.727000 
528.000000	236.160000 
528.500000	229.330000 
529.000000	229.549000 
529.500000	227.897000 
530.000000	226.969000 
530.500000	222.358000 
531.000000	214.422000 
531.500000	211.374000 
532.000000	205.755000 
532.500000	202.307000 
533.000000	194.855000 
533.500000	185.770000 
534.000000	179.349000 
534.500000	172.713000 
535.000000	165.398000 
535.500000	158.492000 
536.000000	151.654000 
536.500000	147.786000 
537.000000	139.661000 
537.500000	132.379000 
538.000000	123.702000 
538.500000	118.143000 
539.000000	114.074000 
539.500000	106.018000 
540.000000	100.136000 
540.500000	89.614000  
541.000000	86.510000  
541.500000	79.730000  
542.000000	76.711000  
542.500000	69.552000  
543.000000	67.822000  
543.500000	62.998000  
544.000000	57.987000  
544.500000	52.266000  
545.000000	48.261000  
545.500000	44.710000  
546.000000	42.133000  
546.500000	36.973000  
547.000000	32.662000  
547.500000	29.330000  
548.000000	25.183000  
548.500000	23.227000  

