PE FL                   SPECTRUM    ASCII       PEDS        1.60        
  -1
0164F1~1.SP
19/01/24
10:19:35.00
19/01/24
10:19:35.00


548.500000
1









LS45
280.00
10.00
10.00
SCAN
1
16
100
100
0
600
0
1
0
1
7
ON
435 365 
0 0 0
#HDR
-1
-1
#GR
NM
INT 
0.00002384185791015625
0.0
230.000000
0.500000
638
8
435.095000
0.437000
#DATA
230.000000	0.602000   
230.500000	0.453000   
231.000000	0.550000   
231.500000	0.515000   
232.000000	0.647000   
232.500000	0.506000   
233.000000	0.437000   
233.500000	0.584000   
234.000000	0.592000   
234.500000	0.437000   
235.000000	0.688999   
235.500000	0.641000   
236.000000	0.633000   
236.500000	0.677000   
237.000000	0.728000   
237.500000	0.450000   
238.000000	0.474000   
238.500000	0.517000   
239.000000	0.537000   
239.500000	0.678000   
240.000000	0.682000   
240.500000	0.866000   
241.000000	0.603000   
241.500000	0.671000   
242.000000	0.687999   
242.500000	0.716000   
243.000000	0.717000   
243.500000	0.908000   
244.000000	0.690999   
244.500000	0.831000   
245.000000	0.735000   
245.500000	0.640000   
246.000000	0.760000   
246.500000	0.720000   
247.000000	0.633000   
247.500000	0.698000   
248.000000	0.912000   
248.500000	1.048000   
249.000000	0.933000   
249.500000	1.035000   
250.000000	0.740000   
250.500000	0.978000   
251.000000	1.124000   
251.500000	1.007000   
252.000000	1.192000   
252.500000	1.393000   
253.000000	1.331000   
253.500000	1.144000   
254.000000	1.464000   
254.500000	1.291000   
255.000000	1.289000   
255.500000	1.550000   
256.000000	1.358000   
256.500000	1.502000   
257.000000	1.830000   
257.500000	1.955000   
258.000000	2.188000   
258.500000	2.971000   
259.000000	3.497000   
259.500000	4.275000   
260.000000	5.265000   
260.500000	6.656000   
261.000000	8.321000   
261.500000	10.193000  
262.000000	12.509000  
262.500000	16.138000  
263.000000	19.036000  
263.500000	23.623000  
264.000000	29.369000  
264.500000	34.532000  
265.000000	40.807000  
265.500000	48.857000  
266.000000	58.793000  
266.500000	68.167000  
267.000000	75.831000  
267.500000	87.191000  
268.000000	101.430000 
268.500000	111.437000 
269.000000	128.856000 
269.500000	143.474000 
270.000000	156.775000 
270.500000	171.775000 
271.000000	186.811000 
271.500000	207.136000 
272.000000	222.123000 
272.500000	242.558000 
273.000000	253.844000 
273.500000	273.701000 
274.000000	288.515000 
274.500000	302.286000 
275.000000	316.498000 
275.500000	328.091000 
276.000000	339.102000 
276.500000	348.541000 
277.000000	356.446000 
277.500000	361.812000 
278.000000	367.431000 
278.500000	369.317000 
279.000000	369.805000 
279.500000	366.785000 
280.000000	359.992000 
280.500000	352.587000 
281.000000	344.685000 
281.500000	334.456000 
282.000000	321.061000 
282.500000	309.570000 
283.000000	293.692000 
283.500000	274.682000 
284.000000	260.629000 
284.500000	241.462000 
285.000000	227.525000 
285.500000	208.888000 
286.000000	196.878000 
286.500000	178.163000 
287.000000	163.064000 
287.500000	149.011000 
288.000000	134.112000 
288.500000	122.429000 
289.000000	111.012000 
289.500000	98.257000  
290.000000	87.165000  
290.500000	78.471000  
291.000000	66.903000  
291.500000	61.690000  
292.000000	55.540000  
292.500000	52.299000  
293.000000	47.136000  
293.500000	43.629000  
294.000000	43.444000  
294.500000	43.396000  
295.000000	41.769000  
295.500000	41.592000  
296.000000	43.774000  
296.500000	45.815000  
297.000000	48.758000  
297.500000	51.474000  
298.000000	53.610000  
298.500000	59.018000  
299.000000	64.787000  
299.500000	70.287000  
300.000000	73.120000  
300.500000	79.848000  
301.000000	84.038000  
301.500000	86.787000  
302.000000	93.037000  
302.500000	97.906000  
303.000000	100.401000 
303.500000	106.358000 
304.000000	111.396000 
304.500000	115.230000 
305.000000	117.095000 
305.500000	119.238000 
306.000000	123.006000 
306.500000	123.267000 
307.000000	125.528000 
307.500000	129.819000 
308.000000	127.981000 
308.500000	128.526000 
309.000000	127.364000 
309.500000	128.459000 
310.000000	122.011000 
310.500000	118.742000 
311.000000	119.538000 
311.500000	117.021000 
312.000000	112.975000 
312.500000	107.102000 
313.000000	105.312000 
313.500000	101.239000 
314.000000	95.786000  
314.500000	90.065000  
315.000000	85.101000  
315.500000	79.992999  
316.000000	74.703999  
316.500000	68.046000  
317.000000	65.218999  
317.500000	60.107000  
318.000000	54.325000  
318.500000	48.166000  
319.000000	43.965000  
319.500000	40.554000  
320.000000	35.432000  
320.500000	32.491000  
321.000000	28.888000  
321.500000	27.269000  
322.000000	23.431000  
322.500000	20.188000  
323.000000	17.790000  
323.500000	16.043000  
324.000000	14.762000  
324.500000	12.646000  
325.000000	11.951000  
325.500000	11.092000  
326.000000	10.302000  
326.500000	9.428000   
327.000000	8.972000   
327.500000	8.564000   
328.000000	7.987000   
328.500000	7.360000   
329.000000	7.226000   
329.500000	6.859000   
330.000000	6.637000   
330.500000	6.151000   
331.000000	6.426000   
331.500000	6.474000   
332.000000	6.424000   
332.500000	6.046000   
333.000000	5.881000   
333.500000	6.516000   
334.000000	6.034000   
334.500000	6.090000   
335.000000	5.987000   
335.500000	5.834000   
336.000000	5.788000   
336.500000	6.111000   
337.000000	5.944000   
337.500000	5.609000   
338.000000	5.910000   
338.500000	5.956000   
339.000000	5.790000   
339.500000	5.396000   
340.000000	6.181000   
340.500000	5.569000   
341.000000	5.392000   
341.500000	4.959000   
342.000000	5.294000   
342.500000	5.134000   
343.000000	5.134000   
343.500000	5.195000   
344.000000	4.786000   
344.500000	4.812000   
345.000000	5.252000   
345.500000	5.346000   
346.000000	4.702000   
346.500000	4.842000   
347.000000	4.950000   
347.500000	4.933000   
348.000000	5.044000   
348.500000	4.983000   
349.000000	4.725000   
349.500000	4.684000   
350.000000	4.095000   
350.500000	4.229000   
351.000000	4.247000   
351.500000	3.879000   
352.000000	4.393000   
352.500000	4.269000   
353.000000	4.163000   
353.500000	4.278000   
354.000000	3.916000   
354.500000	4.303000   
355.000000	4.226000   
355.500000	4.137000   
356.000000	4.041000   
356.500000	4.261000   
357.000000	4.019000   
357.500000	3.483000   
358.000000	3.738000   
358.500000	3.499000   
359.000000	3.522000   
359.500000	3.614000   
360.000000	3.621000   
360.500000	3.388000   
361.000000	3.692000   
361.500000	3.722000   
362.000000	3.640000   
362.500000	3.792000   
363.000000	3.546000   
363.500000	2.991000   
364.000000	3.005000   
364.500000	3.269000   
365.000000	3.285000   
365.500000	3.780000   
366.000000	3.216000   
366.500000	3.287000   
367.000000	2.889000   
367.500000	3.019000   
368.000000	3.172000   
368.500000	2.969000   
369.000000	2.956000   
369.500000	2.903000   
370.000000	2.716000   
370.500000	3.104000   
371.000000	2.674000   
371.500000	2.787000   
372.000000	2.573000   
372.500000	2.802000   
373.000000	2.653000   
373.500000	2.477000   
374.000000	2.804000   
374.500000	2.290000   
375.000000	2.615000   
375.500000	2.496000   
376.000000	2.546000   
376.500000	2.461000   
377.000000	2.480000   
377.500000	2.738000   
378.000000	2.571000   
378.500000	2.419000   
379.000000	2.838000   
379.500000	2.572000   
380.000000	2.677000   
380.500000	2.728000   
381.000000	2.655000   
381.500000	2.234000   
382.000000	2.409000   
382.500000	2.481000   
383.000000	2.494000   
383.500000	2.276000   
384.000000	2.075000   
384.500000	2.167000   
385.000000	2.321000   
385.500000	2.504000   
386.000000	1.898000   
386.500000	2.107000   
387.000000	2.193000   
387.500000	2.433000   
388.000000	2.384000   
388.500000	2.150000   
389.000000	1.923000   
389.500000	1.910000   
390.000000	1.993000   
390.500000	2.239000   
391.000000	2.297000   
391.500000	2.174000   
392.000000	1.870000   
392.500000	1.840000   
393.000000	1.947000   
393.500000	1.711000   
394.000000	2.092000   
394.500000	2.032000   
395.000000	2.059000   
395.500000	1.995000   
396.000000	2.014000   
396.500000	2.104000   
397.000000	2.187000   
397.500000	2.169000   
398.000000	2.217000   
398.500000	2.074000   
399.000000	1.997000   
399.500000	2.242000   
400.000000	2.217000   
400.500000	2.070000   
401.000000	2.199000   
401.500000	1.912000   
402.000000	1.633000   
402.500000	1.625000   
403.000000	1.806000   
403.500000	1.726000   
404.000000	1.820000   
404.500000	1.992000   
405.000000	1.922000   
405.500000	2.026000   
406.000000	1.942000   
406.500000	1.812000   
407.000000	1.783000   
407.500000	1.995000   
408.000000	1.899000   
408.500000	1.800000   
409.000000	1.734000   
409.500000	2.057000   
410.000000	2.098000   
410.500000	1.805000   
411.000000	1.837000   
411.500000	2.059000   
412.000000	1.874000   
412.500000	1.824000   
413.000000	1.839000   
413.500000	1.858000   
414.000000	1.715000   
414.500000	1.970000   
415.000000	1.869000   
415.500000	1.670000   
416.000000	1.869000   
416.500000	2.140000   
417.000000	1.688000   
417.500000	2.048000   
418.000000	2.044000   
418.500000	1.926000   
419.000000	1.986000   
419.500000	2.007000   
420.000000	1.731000   
420.500000	1.815000   
421.000000	1.941000   
421.500000	1.783000   
422.000000	1.931000   
422.500000	1.890000   
423.000000	1.690000   
423.500000	1.538000   
424.000000	1.727000   
424.500000	1.790000   
425.000000	1.748000   
425.500000	1.846000   
426.000000	1.464000   
426.500000	1.830000   
427.000000	1.804000   
427.500000	1.658000   
428.000000	1.396000   
428.500000	1.620000   
429.000000	1.888000   
429.500000	1.605000   
430.000000	1.712000   
430.500000	1.552000   
431.000000	1.594000   
431.500000	1.714000   
432.000000	1.572000   
432.500000	1.471000   
433.000000	1.388000   
433.500000	1.722000   
434.000000	1.573000   
434.500000	1.614000   
435.000000	1.773000   
435.500000	1.677000   
436.000000	1.603000   
436.500000	1.798000   
437.000000	1.943000   
437.500000	1.852000   
438.000000	1.411000   
438.500000	1.665000   
439.000000	1.687000   
439.500000	1.759000   
440.000000	1.844000   
440.500000	1.844000   
441.000000	1.623000   
441.500000	1.521000   
442.000000	1.544000   
442.500000	1.541000   
443.000000	1.755000   
443.500000	1.668000   
444.000000	1.735000   
444.500000	1.769000   
445.000000	1.891000   
445.500000	1.742000   
446.000000	1.554000   
446.500000	1.984000   
447.000000	1.876000   
447.500000	1.569000   
448.000000	1.621000   
448.500000	1.984000   
449.000000	2.258000   
449.500000	2.212000   
450.000000	1.919000   
450.500000	1.835000   
451.000000	1.784000   
451.500000	1.694000   
452.000000	1.892000   
452.500000	1.991000   
453.000000	2.313000   
453.500000	2.316000   
454.000000	2.041000   
454.500000	1.989000   
455.000000	2.057000   
455.500000	2.087000   
456.000000	2.099000   
456.500000	1.981000   
457.000000	2.155000   
457.500000	2.247000   
458.000000	2.001000   
458.500000	1.959000   
459.000000	2.327000   
459.500000	2.029000   
460.000000	2.139000   
460.500000	1.946000   
461.000000	2.107000   
461.500000	2.122000   
462.000000	1.956000   
462.500000	2.017000   
463.000000	2.165000   
463.500000	1.813000   
464.000000	1.897000   
464.500000	1.953000   
465.000000	1.921000   
465.500000	1.742000   
466.000000	1.988000   
466.500000	1.586000   
467.000000	1.758000   
467.500000	2.019000   
468.000000	1.900000   
468.500000	1.871000   
469.000000	1.727000   
469.500000	1.806000   
470.000000	2.021000   
470.500000	1.818000   
471.000000	1.786000   
471.500000	1.743000   
472.000000	1.897000   
472.500000	2.028000   
473.000000	1.815000   
473.500000	1.622000   
474.000000	1.845000   
474.500000	1.722000   
475.000000	1.794000   
475.500000	1.945000   
476.000000	1.756000   
476.500000	1.759000   
477.000000	1.897000   
477.500000	2.045000   
478.000000	1.900000   
478.500000	1.812000   
479.000000	1.655000   
479.500000	1.844000   
480.000000	2.115000   
480.500000	2.029000   
481.000000	1.793000   
481.500000	1.994000   
482.000000	1.883000   
482.500000	2.066000   
483.000000	1.888000   
483.500000	1.898000   
484.000000	2.135000   
484.500000	2.136000   
485.000000	2.153000   
485.500000	1.779000   
486.000000	2.084000   
486.500000	2.144000   
487.000000	2.180000   
487.500000	2.181000   
488.000000	2.460000   
488.500000	2.559000   
489.000000	2.473000   
489.500000	2.238000   
490.000000	2.409000   
490.500000	2.683000   
491.000000	2.748000   
491.500000	2.430000   
492.000000	2.680000   
492.500000	2.614000   
493.000000	2.919000   
493.500000	3.183000   
494.000000	3.191000   
494.500000	2.762000   
495.000000	2.846000   
495.500000	2.793000   
496.000000	2.881000   
496.500000	2.997000   
497.000000	2.820000   
497.500000	2.915000   
498.000000	2.865000   
498.500000	2.728000   
499.000000	2.713000   
499.500000	2.531000   
500.000000	2.890000   
500.500000	2.582000   
501.000000	2.849000   
501.500000	2.629000   
502.000000	2.747000   
502.500000	2.496000   
503.000000	2.428000   
503.500000	2.656000   
504.000000	2.631000   
504.500000	2.875000   
505.000000	2.549000   
505.500000	2.647000   
506.000000	2.662000   
506.500000	2.600000   
507.000000	2.723000   
507.500000	2.759000   
508.000000	2.986000   
508.500000	2.632000   
509.000000	2.461000   
509.500000	2.795000   
510.000000	2.979000   
510.500000	3.016000   
511.000000	2.910000   
511.500000	2.958000   
512.000000	2.737000   
512.500000	3.348000   
513.000000	3.123000   
513.500000	2.823000   
514.000000	3.102000   
514.500000	3.047000   
515.000000	3.376000   
515.500000	3.596000   
516.000000	3.522000   
516.500000	3.212000   
517.000000	3.689000   
517.500000	3.575000   
518.000000	4.065000   
518.500000	3.953000   
519.000000	3.971000   
519.500000	3.918000   
520.000000	4.000000   
520.500000	4.058000   
521.000000	4.272000   
521.500000	3.866000   
522.000000	4.205000   
522.500000	4.049000   
523.000000	4.258000   
523.500000	4.139000   
524.000000	4.130000   
524.500000	3.856000   
525.000000	4.267000   
525.500000	4.276000   
526.000000	4.278000   
526.500000	4.302000   
527.000000	4.232000   
527.500000	4.271000   
528.000000	4.600000   
528.500000	4.874000   
529.000000	5.400000   
529.500000	5.952000   
530.000000	6.386000   
530.500000	6.523000   
531.000000	7.592000   
531.500000	8.295999   
532.000000	8.869999   
532.500000	11.324000  
533.000000	13.454000  
533.500000	16.072000  
534.000000	18.601000  
534.500000	21.921000  
535.000000	25.753000  
535.500000	31.924000  
536.000000	38.064000  
536.500000	44.412000  
537.000000	49.389000  
537.500000	59.442000  
538.000000	67.807000  
538.500000	79.452000  
539.000000	89.554000  
539.500000	102.280000 
540.000000	114.640000 
540.500000	128.403000 
541.000000	145.323000 
541.500000	156.582000 
542.000000	173.136000 
542.500000	195.862000 
543.000000	209.182000 
543.500000	228.647000 
544.000000	243.415000 
544.500000	271.494000 
545.000000	285.841000 
545.500000	303.542000 
546.000000	328.001000 
546.500000	347.898000 
547.000000	370.917000 
547.500000	392.877000 
548.000000	409.045000 
548.500000	435.095000 

