PE FL                   SPECTRUM    ASCII       PEDS        1.60        
  -1
0164FD~1.SP
19/01/24
10:18:50.00
19/01/24
10:18:50.00


548.500000
1









LS45
275.00
10.00
10.00
SCAN
1
16
100
100
0
600
0
1
0
1
7
ON
435 365 
0 0 0
#HDR
-1
-1
#GR
NM
INT 
0.00002384185791015625
0.0
230.000000
0.500000
638
8
744.003000
0.398000
#DATA
230.000000	0.686000   
230.500000	0.515000   
231.000000	0.498000   
231.500000	0.398000   
232.000000	0.562999   
232.500000	0.558000   
233.000000	0.688999   
233.500000	0.400000   
234.000000	0.470000   
234.500000	0.718000   
235.000000	0.620000   
235.500000	0.465000   
236.000000	0.433000   
236.500000	0.456000   
237.000000	0.632000   
237.500000	0.571000   
238.000000	0.922000   
238.500000	0.646000   
239.000000	0.717000   
239.500000	0.623000   
240.000000	0.702000   
240.500000	0.597000   
241.000000	0.604000   
241.500000	0.765000   
242.000000	0.704000   
242.500000	0.649000   
243.000000	0.895000   
243.500000	0.656000   
244.000000	0.640000   
244.500000	1.004000   
245.000000	0.858000   
245.500000	0.796000   
246.000000	0.916000   
246.500000	1.024000   
247.000000	0.858000   
247.500000	1.006000   
248.000000	1.207000   
248.500000	1.070000   
249.000000	1.045000   
249.500000	1.161000   
250.000000	1.242000   
250.500000	1.291000   
251.000000	1.376000   
251.500000	1.406000   
252.000000	1.349000   
252.500000	1.920000   
253.000000	1.946000   
253.500000	1.850000   
254.000000	2.493000   
254.500000	2.850000   
255.000000	4.035000   
255.500000	4.963000   
256.000000	6.004000   
256.500000	7.618000   
257.000000	10.102000  
257.500000	12.449000  
258.000000	15.772000  
258.500000	20.263000  
259.000000	23.999000  
259.500000	30.054000  
260.000000	36.154000  
260.500000	44.595000  
261.000000	50.020000  
261.500000	60.436000  
262.000000	70.310000  
262.500000	83.172000  
263.000000	92.028000  
263.500000	102.832000 
264.000000	117.580000 
264.500000	126.504000 
265.000000	144.940000 
265.500000	160.048000 
266.000000	175.204000 
266.500000	186.690000 
267.000000	205.135000 
267.500000	217.943000 
268.000000	234.029000 
268.500000	249.304000 
269.000000	266.581000 
269.500000	275.686000 
270.000000	288.818000 
270.500000	298.462000 
271.000000	305.279000 
271.500000	315.596000 
272.000000	319.630000 
272.500000	326.893000 
273.000000	329.962000 
273.500000	331.637000 
274.000000	326.550000 
274.500000	323.611000 
275.000000	325.794000 
275.500000	313.822000 
276.000000	305.046000 
276.500000	292.896000 
277.000000	288.702000 
277.500000	275.277000 
278.000000	259.445000 
278.500000	243.109000 
279.000000	228.887000 
279.500000	221.539000 
280.000000	202.174000 
280.500000	188.219000 
281.000000	171.583000 
281.500000	157.557000 
282.000000	142.526000 
282.500000	128.644000 
283.000000	115.501000 
283.500000	103.011000 
284.000000	94.658000  
284.500000	82.145000  
285.000000	76.922000  
285.500000	67.456000  
286.000000	60.895000  
286.500000	55.821000  
287.000000	51.665000  
287.500000	48.447000  
288.000000	46.106000  
288.500000	43.035000  
289.000000	43.982000  
289.500000	44.655000  
290.000000	47.415000  
290.500000	47.043000  
291.000000	48.873000  
291.500000	54.124000  
292.000000	58.380000  
292.500000	61.898000  
293.000000	65.441999  
293.500000	68.416000  
294.000000	75.047000  
294.500000	77.849000  
295.000000	82.962999  
295.500000	87.042000  
296.000000	91.236999  
296.500000	98.048000  
297.000000	101.208000 
297.500000	104.036000 
298.000000	109.718000 
298.500000	112.444000 
299.000000	113.145000 
299.500000	118.521000 
300.000000	122.628000 
300.500000	124.652000 
301.000000	123.711000 
301.500000	123.269000 
302.000000	122.089000 
302.500000	122.353000 
303.000000	122.959000 
303.500000	121.014000 
304.000000	118.358000 
304.500000	116.867000 
305.000000	110.911000 
305.500000	110.730000 
306.000000	106.553000 
306.500000	103.153000 
307.000000	98.476000  
307.500000	91.596999  
308.000000	87.766000  
308.500000	82.777000  
309.000000	76.145000  
309.500000	70.316000  
310.000000	65.888000  
310.500000	61.736000  
311.000000	57.759000  
311.500000	53.203000  
312.000000	47.600000  
312.500000	45.311000  
313.000000	42.331000  
313.500000	39.001000  
314.000000	34.585000  
314.500000	29.608000  
315.000000	26.880000  
315.500000	22.967000  
316.000000	20.457000  
316.500000	19.111000  
317.000000	18.001000  
317.500000	14.993000  
318.000000	14.454000  
318.500000	12.048000  
319.000000	10.635000  
319.500000	10.325000  
320.000000	9.393000   
320.500000	8.853000   
321.000000	8.080000   
321.500000	7.727000   
322.000000	7.210000   
322.500000	7.057000   
323.000000	6.482000   
323.500000	6.177000   
324.000000	6.218000   
324.500000	6.454000   
325.000000	6.292000   
325.500000	6.493000   
326.000000	6.207000   
326.500000	5.888000   
327.000000	5.554000   
327.500000	6.143000   
328.000000	6.078000   
328.500000	6.099000   
329.000000	6.474000   
329.500000	6.208000   
330.000000	5.659000   
330.500000	6.191000   
331.000000	5.921000   
331.500000	5.883000   
332.000000	5.509000   
332.500000	5.623000   
333.000000	5.839000   
333.500000	5.768000   
334.000000	5.893000   
334.500000	6.175000   
335.000000	5.942000   
335.500000	5.964000   
336.000000	5.796000   
336.500000	5.443000   
337.000000	5.480000   
337.500000	4.877000   
338.000000	5.153000   
338.500000	5.338000   
339.000000	5.360000   
339.500000	5.512000   
340.000000	5.373000   
340.500000	5.091000   
341.000000	5.206000   
341.500000	5.021000   
342.000000	4.854000   
342.500000	5.004000   
343.000000	5.001000   
343.500000	4.704000   
344.000000	5.267000   
344.500000	4.469000   
345.000000	4.440000   
345.500000	4.375000   
346.000000	4.479000   
346.500000	4.495000   
347.000000	4.213000   
347.500000	4.926000   
348.000000	4.463000   
348.500000	4.727000   
349.000000	4.422000   
349.500000	4.562000   
350.000000	4.202000   
350.500000	4.164000   
351.000000	3.656000   
351.500000	4.035000   
352.000000	4.240000   
352.500000	4.341000   
353.000000	3.925000   
353.500000	3.915000   
354.000000	3.850000   
354.500000	4.021000   
355.000000	4.294000   
355.500000	3.991000   
356.000000	4.217000   
356.500000	3.978000   
357.000000	3.559000   
357.500000	3.165000   
358.000000	3.278000   
358.500000	4.245000   
359.000000	3.648000   
359.500000	3.606000   
360.000000	3.372000   
360.500000	3.339000   
361.000000	3.359000   
361.500000	3.627000   
362.000000	3.649000   
362.500000	3.475000   
363.000000	3.166000   
363.500000	3.063000   
364.000000	2.808000   
364.500000	2.568000   
365.000000	3.200000   
365.500000	3.067000   
366.000000	3.079000   
366.500000	3.300000   
367.000000	2.985000   
367.500000	3.233000   
368.000000	3.053000   
368.500000	3.197000   
369.000000	3.132000   
369.500000	2.736000   
370.000000	2.987000   
370.500000	2.915000   
371.000000	2.566000   
371.500000	2.718000   
372.000000	2.612000   
372.500000	2.743000   
373.000000	2.582000   
373.500000	2.733000   
374.000000	2.847000   
374.500000	2.521000   
375.000000	2.718000   
375.500000	2.626000   
376.000000	2.483000   
376.500000	2.504000   
377.000000	2.598000   
377.500000	2.474000   
378.000000	2.314000   
378.500000	2.374000   
379.000000	2.416000   
379.500000	2.601000   
380.000000	2.529000   
380.500000	2.474000   
381.000000	2.584000   
381.500000	2.390000   
382.000000	2.334000   
382.500000	2.512000   
383.000000	2.132000   
383.500000	2.095000   
384.000000	2.278000   
384.500000	2.540000   
385.000000	2.414000   
385.500000	2.550000   
386.000000	2.393000   
386.500000	2.132000   
387.000000	2.321000   
387.500000	2.336000   
388.000000	2.155000   
388.500000	1.972000   
389.000000	2.265000   
389.500000	2.175000   
390.000000	2.014000   
390.500000	2.209000   
391.000000	2.380000   
391.500000	2.369000   
392.000000	2.192000   
392.500000	2.076000   
393.000000	2.216000   
393.500000	2.016000   
394.000000	2.026000   
394.500000	2.330000   
395.000000	2.131000   
395.500000	2.047000   
396.000000	1.958000   
396.500000	2.409000   
397.000000	2.263000   
397.500000	2.411000   
398.000000	2.012000   
398.500000	2.088000   
399.000000	1.739000   
399.500000	1.817000   
400.000000	2.235000   
400.500000	1.795000   
401.000000	1.796000   
401.500000	2.092000   
402.000000	2.097000   
402.500000	1.970000   
403.000000	1.993000   
403.500000	1.981000   
404.000000	2.006000   
404.500000	2.089000   
405.000000	1.984000   
405.500000	1.960000   
406.000000	2.140000   
406.500000	1.684000   
407.000000	2.128000   
407.500000	2.045000   
408.000000	2.025000   
408.500000	1.799000   
409.000000	2.008000   
409.500000	1.968000   
410.000000	1.980000   
410.500000	1.673000   
411.000000	1.950000   
411.500000	1.823000   
412.000000	1.807000   
412.500000	1.665000   
413.000000	1.886000   
413.500000	1.752000   
414.000000	1.780000   
414.500000	1.821000   
415.000000	1.785000   
415.500000	1.926000   
416.000000	2.073000   
416.500000	2.099000   
417.000000	1.803000   
417.500000	1.701000   
418.000000	1.847000   
418.500000	1.919000   
419.000000	2.004000   
419.500000	1.847000   
420.000000	2.293000   
420.500000	1.947000   
421.000000	2.050000   
421.500000	1.937000   
422.000000	1.735000   
422.500000	1.865000   
423.000000	2.089000   
423.500000	1.990000   
424.000000	2.067000   
424.500000	1.828000   
425.000000	2.189000   
425.500000	1.884000   
426.000000	1.644000   
426.500000	1.542000   
427.000000	1.599000   
427.500000	1.929000   
428.000000	1.673000   
428.500000	1.590000   
429.000000	1.733000   
429.500000	2.152000   
430.000000	1.935000   
430.500000	1.492000   
431.000000	1.588000   
431.500000	1.603000   
432.000000	1.755000   
432.500000	1.950000   
433.000000	1.939000   
433.500000	1.730000   
434.000000	1.565000   
434.500000	1.729000   
435.000000	1.699000   
435.500000	1.452000   
436.000000	1.798000   
436.500000	1.664000   
437.000000	1.724000   
437.500000	1.615000   
438.000000	2.003000   
438.500000	1.930000   
439.000000	1.779000   
439.500000	1.826000   
440.000000	1.906000   
440.500000	1.596000   
441.000000	1.753000   
441.500000	2.009000   
442.000000	2.141000   
442.500000	2.044000   
443.000000	1.811000   
443.500000	1.767000   
444.000000	2.042000   
444.500000	1.613000   
445.000000	1.414000   
445.500000	1.859000   
446.000000	1.993000   
446.500000	1.865000   
447.000000	1.984000   
447.500000	1.803000   
448.000000	1.689000   
448.500000	1.761000   
449.000000	1.636000   
449.500000	2.275000   
450.000000	1.994000   
450.500000	2.123000   
451.000000	2.249000   
451.500000	2.157000   
452.000000	1.893000   
452.500000	2.047000   
453.000000	2.308000   
453.500000	2.259000   
454.000000	1.881000   
454.500000	1.905000   
455.000000	2.006000   
455.500000	2.462000   
456.000000	2.600000   
456.500000	2.263000   
457.000000	2.387000   
457.500000	2.584000   
458.000000	2.153000   
458.500000	2.230000   
459.000000	2.536000   
459.500000	2.354000   
460.000000	2.297000   
460.500000	2.000000   
461.000000	2.166000   
461.500000	2.216000   
462.000000	2.356000   
462.500000	2.042000   
463.000000	2.343000   
463.500000	2.167000   
464.000000	2.149000   
464.500000	2.290000   
465.000000	2.082000   
465.500000	1.774000   
466.000000	1.897000   
466.500000	1.807000   
467.000000	2.146000   
467.500000	2.297000   
468.000000	2.158000   
468.500000	2.184000   
469.000000	1.906000   
469.500000	1.772000   
470.000000	1.978000   
470.500000	1.212000   
471.000000	2.017000   
471.500000	1.822000   
472.000000	1.911000   
472.500000	1.743000   
473.000000	1.782000   
473.500000	2.115000   
474.000000	1.957000   
474.500000	2.045000   
475.000000	1.943000   
475.500000	2.170000   
476.000000	2.082000   
476.500000	1.830000   
477.000000	2.270000   
477.500000	2.117000   
478.000000	1.773000   
478.500000	2.263000   
479.000000	2.076000   
479.500000	2.149000   
480.000000	2.293000   
480.500000	2.382000   
481.000000	2.152000   
481.500000	2.239000   
482.000000	2.341000   
482.500000	2.285000   
483.000000	2.496000   
483.500000	2.521000   
484.000000	2.511000   
484.500000	2.454000   
485.000000	2.296000   
485.500000	2.497000   
486.000000	2.380000   
486.500000	3.025000   
487.000000	2.951000   
487.500000	2.832000   
488.000000	2.881000   
488.500000	2.970000   
489.000000	2.803000   
489.500000	2.820000   
490.000000	2.887000   
490.500000	2.755000   
491.000000	3.414000   
491.500000	3.435000   
492.000000	3.056000   
492.500000	3.639000   
493.000000	3.629000   
493.500000	3.658000   
494.000000	3.428000   
494.500000	3.408000   
495.000000	3.509000   
495.500000	3.626000   
496.000000	3.486000   
496.500000	3.055000   
497.000000	3.584000   
497.500000	3.801000   
498.000000	3.187000   
498.500000	3.210000   
499.000000	3.467000   
499.500000	3.344000   
500.000000	3.437000   
500.500000	3.189000   
501.000000	3.369000   
501.500000	3.479000   
502.000000	3.674000   
502.500000	3.321000   
503.000000	3.215000   
503.500000	3.205000   
504.000000	3.312000   
504.500000	2.967000   
505.000000	3.165000   
505.500000	3.016000   
506.000000	2.893000   
506.500000	2.756000   
507.000000	3.200000   
507.500000	3.140000   
508.000000	2.972000   
508.500000	3.525000   
509.000000	3.703000   
509.500000	3.531000   
510.000000	3.622000   
510.500000	3.538000   
511.000000	3.574000   
511.500000	3.886000   
512.000000	3.848000   
512.500000	3.559000   
513.000000	4.437000   
513.500000	4.030000   
514.000000	4.180000   
514.500000	4.171000   
515.000000	4.569000   
515.500000	4.564000   
516.000000	4.592000   
516.500000	4.650000   
517.000000	4.744000   
517.500000	4.531000   
518.000000	5.113000   
518.500000	5.472000   
519.000000	5.894000   
519.500000	6.054000   
520.000000	6.648000   
520.500000	6.464000   
521.000000	7.495000   
521.500000	8.621000   
522.000000	9.802000   
522.500000	10.511000  
523.000000	12.868000  
523.500000	13.873000  
524.000000	16.810000  
524.500000	20.611000  
525.000000	24.847000  
525.500000	27.039000  
526.000000	33.300000  
526.500000	39.683000  
527.000000	44.327000  
527.500000	51.456000  
528.000000	61.473000  
528.500000	70.171000  
529.000000	77.518000  
529.500000	91.522000  
530.000000	105.490000 
530.500000	117.421000 
531.000000	133.203000 
531.500000	148.448000 
532.000000	161.661000 
532.500000	184.894000 
533.000000	207.049000 
533.500000	227.399000 
534.000000	246.853000 
534.500000	264.386000 
535.000000	290.115000 
535.500000	313.460000 
536.000000	334.985000 
536.500000	367.465000 
537.000000	387.271000 
537.500000	414.836000 
538.000000	450.882000 
538.500000	472.629000 
539.000000	502.460000 
539.500000	531.424000 
540.000000	555.375000 
540.500000	577.862000 
541.000000	593.984000 
541.500000	620.198000 
542.000000	636.663000 
542.500000	656.254000 
543.000000	666.859000 
543.500000	691.902000 
544.000000	697.938000 
544.500000	715.947000 
545.000000	717.647000 
545.500000	728.663000 
546.000000	734.583000 
546.500000	743.684999 
547.000000	740.313000 
547.500000	744.003000 
548.000000	742.712000 
548.500000	737.508000 

