PE FL                   SPECTRUM    ASCII       PEDS        1.60        
  -1
0170F5~1.SP
19/01/24
10:15:49.00
19/01/24
10:15:49.00


548.500000
1









LS45
255.00
10.00
10.00
SCAN
1
16
100
100
0
600
0
1
0
1
7
ON
435 365 
0 0 0
#HDR
-1
-1
#GR
NM
INT 
0.00002384185791015625
0.0
230.000000
0.500000
638
8
807.869000
0.741000
#DATA
230.000000	1.000000   
230.500000	0.860000   
231.000000	0.840000   
231.500000	0.741000   
232.000000	0.836000   
232.500000	0.960000   
233.000000	1.292000   
233.500000	1.069000   
234.000000	1.256000   
234.500000	1.708000   
235.000000	2.010000   
235.500000	2.403000   
236.000000	3.007000   
236.500000	3.386000   
237.000000	3.814000   
237.500000	5.119000   
238.000000	6.552000   
238.500000	8.045999   
239.000000	9.332000   
239.500000	11.715000  
240.000000	12.856000  
240.500000	15.685000  
241.000000	18.529000  
241.500000	21.242000  
242.000000	25.045000  
242.500000	28.012000  
243.000000	33.656000  
243.500000	37.707000  
244.000000	42.021000  
244.500000	48.107000  
245.000000	54.501000  
245.500000	59.696000  
246.000000	65.394000  
246.500000	73.431000  
247.000000	79.421000  
247.500000	85.260000  
248.000000	93.021000  
248.500000	105.922000 
249.000000	112.029000 
249.500000	118.708000 
250.000000	126.493000 
250.500000	138.210000 
251.000000	142.693000 
251.500000	150.583000 
252.000000	156.820000 
252.500000	162.087000 
253.000000	168.551000 
253.500000	172.026000 
254.000000	175.964000 
254.500000	177.019000 
255.000000	178.372000 
255.500000	179.993000 
256.000000	183.638000 
256.500000	184.871000 
257.000000	180.955000 
257.500000	179.072000 
258.000000	174.094000 
258.500000	175.521000 
259.000000	167.705000 
259.500000	159.799000 
260.000000	153.626000 
260.500000	143.772000 
261.000000	138.810000 
261.500000	131.776000 
262.000000	123.366000 
262.500000	116.947000 
263.000000	110.039000 
263.500000	101.481000 
264.000000	94.706000  
264.500000	89.968000  
265.000000	84.039000  
265.500000	80.673000  
266.000000	75.413000  
266.500000	70.172000  
267.000000	66.673000  
267.500000	63.994000  
268.000000	61.380000  
268.500000	61.268000  
269.000000	57.797000  
269.500000	57.749000  
270.000000	56.945000  
270.500000	59.135000  
271.000000	59.911000  
271.500000	59.288000  
272.000000	62.481000  
272.500000	64.639000  
273.000000	68.205000  
273.500000	72.572000  
274.000000	74.107000  
274.500000	77.846999  
275.000000	79.012000  
275.500000	83.048000  
276.000000	84.874000  
276.500000	85.562000  
277.000000	89.212000  
277.500000	90.922000  
278.000000	89.221000  
278.500000	91.264000  
279.000000	92.474000  
279.500000	94.325999  
280.000000	93.647000  
280.500000	92.224999  
281.000000	89.861000  
281.500000	89.538000  
282.000000	90.167000  
282.500000	85.985000  
283.000000	84.999000  
283.500000	82.566000  
284.000000	78.755000  
284.500000	74.471999  
285.000000	70.839000  
285.500000	66.634000  
286.000000	65.467000  
286.500000	62.056000  
287.000000	57.169000  
287.500000	53.391000  
288.000000	49.001000  
288.500000	46.755000  
289.000000	42.757000  
289.500000	39.540000  
290.000000	37.004000  
290.500000	33.248000  
291.000000	29.767000  
291.500000	25.773000  
292.000000	23.366000  
292.500000	21.130000  
293.000000	18.009000  
293.500000	16.445000  
294.000000	13.936000  
294.500000	12.693000  
295.000000	10.459000  
295.500000	9.129000   
296.000000	7.943000   
296.500000	6.963000   
297.000000	6.278000   
297.500000	5.399000   
298.000000	4.745000   
298.500000	4.753000   
299.000000	4.872000   
299.500000	4.262000   
300.000000	3.709000   
300.500000	3.687000   
301.000000	3.454000   
301.500000	3.580000   
302.000000	3.288000   
302.500000	3.487000   
303.000000	3.565000   
303.500000	3.545000   
304.000000	3.369000   
304.500000	3.281000   
305.000000	3.243000   
305.500000	3.526000   
306.000000	3.978000   
306.500000	3.582000   
307.000000	3.240000   
307.500000	3.737000   
308.000000	4.211000   
308.500000	3.240000   
309.000000	3.277000   
309.500000	3.879000   
310.000000	3.522000   
310.500000	3.539000   
311.000000	3.472000   
311.500000	3.389000   
312.000000	3.046000   
312.500000	3.353000   
313.000000	3.691000   
313.500000	3.333000   
314.000000	3.273000   
314.500000	3.352000   
315.000000	3.695000   
315.500000	3.508000   
316.000000	3.623000   
316.500000	3.553000   
317.000000	3.442000   
317.500000	3.587000   
318.000000	3.565000   
318.500000	3.036000   
319.000000	3.492000   
319.500000	3.542000   
320.000000	3.703000   
320.500000	3.618000   
321.000000	2.923000   
321.500000	2.982000   
322.000000	3.659000   
322.500000	3.169000   
323.000000	3.213000   
323.500000	3.564000   
324.000000	3.397000   
324.500000	3.418000   
325.000000	3.273000   
325.500000	3.284000   
326.000000	3.611000   
326.500000	3.395000   
327.000000	3.405000   
327.500000	3.701000   
328.000000	3.397000   
328.500000	3.315000   
329.000000	2.939000   
329.500000	2.588000   
330.000000	3.457000   
330.500000	3.165000   
331.000000	3.402000   
331.500000	3.153000   
332.000000	2.704000   
332.500000	3.112000   
333.000000	2.755000   
333.500000	2.688000   
334.000000	3.515000   
334.500000	3.320000   
335.000000	3.343000   
335.500000	3.194000   
336.000000	3.265000   
336.500000	2.779000   
337.000000	2.839000   
337.500000	2.900000   
338.000000	3.306000   
338.500000	2.900000   
339.000000	2.711000   
339.500000	3.088000   
340.000000	2.641000   
340.500000	2.748000   
341.000000	2.663000   
341.500000	2.803000   
342.000000	3.226000   
342.500000	2.617000   
343.000000	2.728000   
343.500000	2.639000   
344.000000	2.475000   
344.500000	2.691000   
345.000000	2.616000   
345.500000	2.605000   
346.000000	2.425000   
346.500000	2.295000   
347.000000	2.678000   
347.500000	2.528000   
348.000000	2.748000   
348.500000	2.656000   
349.000000	2.960000   
349.500000	2.936000   
350.000000	2.713000   
350.500000	2.350000   
351.000000	2.380000   
351.500000	2.604000   
352.000000	2.330000   
352.500000	2.746000   
353.000000	2.424000   
353.500000	2.339000   
354.000000	2.471000   
354.500000	2.383000   
355.000000	2.997000   
355.500000	2.492000   
356.000000	2.570000   
356.500000	2.359000   
357.000000	2.508000   
357.500000	2.501000   
358.000000	2.291000   
358.500000	2.351000   
359.000000	2.253000   
359.500000	2.270000   
360.000000	2.536000   
360.500000	2.259000   
361.000000	2.553000   
361.500000	2.382000   
362.000000	2.026000   
362.500000	2.226000   
363.000000	2.493000   
363.500000	2.208000   
364.000000	2.242000   
364.500000	1.941000   
365.000000	2.122000   
365.500000	2.056000   
366.000000	2.369000   
366.500000	2.407000   
367.000000	2.191000   
367.500000	2.462000   
368.000000	2.224000   
368.500000	2.108000   
369.000000	2.520000   
369.500000	2.215000   
370.000000	2.262000   
370.500000	2.293000   
371.000000	2.340000   
371.500000	2.206000   
372.000000	2.345000   
372.500000	2.186000   
373.000000	2.240000   
373.500000	2.360000   
374.000000	1.982000   
374.500000	2.038000   
375.000000	2.351000   
375.500000	2.018000   
376.000000	2.138000   
376.500000	1.868000   
377.000000	2.471000   
377.500000	2.194000   
378.000000	2.007000   
378.500000	1.992000   
379.000000	2.044000   
379.500000	1.942000   
380.000000	2.287000   
380.500000	2.196000   
381.000000	2.129000   
381.500000	2.215000   
382.000000	1.853000   
382.500000	2.289000   
383.000000	2.395000   
383.500000	1.870000   
384.000000	2.137000   
384.500000	1.843000   
385.000000	2.142000   
385.500000	2.303000   
386.000000	2.091000   
386.500000	2.200000   
387.000000	2.279000   
387.500000	2.223000   
388.000000	2.241000   
388.500000	2.096000   
389.000000	2.132000   
389.500000	1.961000   
390.000000	1.895000   
390.500000	2.018000   
391.000000	1.860000   
391.500000	1.969000   
392.000000	2.152000   
392.500000	1.936000   
393.000000	1.900000   
393.500000	2.345000   
394.000000	1.882000   
394.500000	2.357000   
395.000000	2.119000   
395.500000	1.867000   
396.000000	2.023000   
396.500000	1.948000   
397.000000	2.153000   
397.500000	2.316000   
398.000000	1.868000   
398.500000	2.023000   
399.000000	1.966000   
399.500000	2.273000   
400.000000	2.245000   
400.500000	1.961000   
401.000000	1.914000   
401.500000	2.279000   
402.000000	2.305000   
402.500000	2.243000   
403.000000	2.064000   
403.500000	1.917000   
404.000000	1.788000   
404.500000	2.051000   
405.000000	2.120000   
405.500000	1.916000   
406.000000	2.258000   
406.500000	2.111000   
407.000000	2.863000   
407.500000	2.693000   
408.000000	2.399000   
408.500000	2.000000   
409.000000	2.298000   
409.500000	2.232000   
410.000000	2.100000   
410.500000	2.403000   
411.000000	2.293000   
411.500000	2.039000   
412.000000	2.586000   
412.500000	2.043000   
413.000000	2.450000   
413.500000	2.578000   
414.000000	2.411000   
414.500000	2.307000   
415.000000	2.494000   
415.500000	2.438000   
416.000000	2.344000   
416.500000	2.474000   
417.000000	2.548000   
417.500000	2.723000   
418.000000	2.466000   
418.500000	2.205000   
419.000000	2.207000   
419.500000	2.516000   
420.000000	2.617000   
420.500000	2.653000   
421.000000	2.352000   
421.500000	2.295000   
422.000000	2.699000   
422.500000	2.453000   
423.000000	2.303000   
423.500000	2.152000   
424.000000	2.417000   
424.500000	2.442000   
425.000000	2.428000   
425.500000	2.747000   
426.000000	2.262000   
426.500000	2.294000   
427.000000	2.427000   
427.500000	2.005000   
428.000000	2.160000   
428.500000	2.376000   
429.000000	2.224000   
429.500000	2.427000   
430.000000	2.319000   
430.500000	1.976000   
431.000000	2.150000   
431.500000	2.474000   
432.000000	2.812000   
432.500000	2.167000   
433.000000	2.189000   
433.500000	2.577000   
434.000000	2.150000   
434.500000	2.157000   
435.000000	2.363000   
435.500000	2.390000   
436.000000	2.543000   
436.500000	2.894000   
437.000000	2.337000   
437.500000	2.895000   
438.000000	2.551000   
438.500000	2.473000   
439.000000	2.532000   
439.500000	2.657000   
440.000000	2.499000   
440.500000	2.467000   
441.000000	2.437000   
441.500000	2.541000   
442.000000	2.695000   
442.500000	2.472000   
443.000000	2.587000   
443.500000	2.315000   
444.000000	2.761000   
444.500000	2.952000   
445.000000	2.588000   
445.500000	2.867000   
446.000000	2.711000   
446.500000	2.980000   
447.000000	2.457000   
447.500000	2.756000   
448.000000	3.110000   
448.500000	2.928000   
449.000000	2.899000   
449.500000	2.927000   
450.000000	2.938000   
450.500000	3.125000   
451.000000	3.328000   
451.500000	3.698000   
452.000000	3.496000   
452.500000	3.917000   
453.000000	4.084000   
453.500000	3.936000   
454.000000	3.606000   
454.500000	3.548000   
455.000000	4.060000   
455.500000	4.256000   
456.000000	3.905000   
456.500000	4.262000   
457.000000	4.433000   
457.500000	4.126000   
458.000000	4.110000   
458.500000	4.370000   
459.000000	4.232000   
459.500000	4.147000   
460.000000	3.750000   
460.500000	4.123000   
461.000000	4.226000   
461.500000	3.972000   
462.000000	3.475000   
462.500000	3.546000   
463.000000	4.234000   
463.500000	4.195000   
464.000000	3.863000   
464.500000	4.107000   
465.000000	4.168000   
465.500000	4.280000   
466.000000	3.917000   
466.500000	4.097000   
467.000000	4.107000   
467.500000	4.234000   
468.000000	3.883000   
468.500000	4.322000   
469.000000	4.245000   
469.500000	4.737000   
470.000000	4.009000   
470.500000	4.312000   
471.000000	4.325000   
471.500000	4.557000   
472.000000	4.398000   
472.500000	4.433000   
473.000000	4.455000   
473.500000	4.322000   
474.000000	4.560000   
474.500000	4.430000   
475.000000	4.740000   
475.500000	4.406000   
476.000000	4.886000   
476.500000	5.172000   
477.000000	5.409000   
477.500000	5.194000   
478.000000	5.218000   
478.500000	5.252000   
479.000000	5.722000   
479.500000	6.583000   
480.000000	6.619000   
480.500000	6.931000   
481.000000	7.578000   
481.500000	8.867000   
482.000000	9.856999   
482.500000	11.959000  
483.000000	14.162000  
483.500000	18.280000  
484.000000	20.893000  
484.500000	26.036000  
485.000000	30.565000  
485.500000	36.008000  
486.000000	42.592000  
486.500000	54.163000  
487.000000	60.585000  
487.500000	69.319999  
488.000000	80.051000  
488.500000	91.188999  
489.000000	103.460000 
489.500000	112.533000 
490.000000	124.423000 
490.500000	143.058000 
491.000000	154.075000 
491.500000	170.810000 
492.000000	189.841000 
492.500000	212.498000 
493.000000	224.415000 
493.500000	248.762000 
494.000000	265.295000 
494.500000	289.077000 
495.000000	309.158000 
495.500000	334.521000 
496.000000	351.913000 
496.500000	374.326000 
497.000000	395.865000 
497.500000	413.094000 
498.000000	434.840000 
498.500000	457.022000 
499.000000	466.944000 
499.500000	497.094000 
500.000000	513.957000 
500.500000	530.684000 
501.000000	553.107999 
501.500000	570.260000 
502.000000	589.034000 
502.500000	611.975000 
503.000000	633.317000 
503.500000	651.996000 
504.000000	659.054999 
504.500000	668.839000 
505.000000	685.432000 
505.500000	692.401000 
506.000000	704.367000 
506.500000	716.927000 
507.000000	718.950000 
507.500000	725.346000 
508.000000	738.466000 
508.500000	743.275000 
509.000000	744.182000 
509.500000	760.447000 
510.000000	779.902000 
510.500000	770.657000 
511.000000	784.915000 
511.500000	790.611000 
512.000000	799.791000 
512.500000	795.761999 
513.000000	799.392000 
513.500000	805.453000 
514.000000	807.869000 
514.500000	799.422000 
515.000000	804.081000 
515.500000	797.087000 
516.000000	793.048000 
516.500000	788.541000 
517.000000	776.645000 
517.500000	774.057000 
518.000000	758.927000 
518.500000	754.000000 
519.000000	738.990000 
519.500000	718.598000 
520.000000	698.568000 
520.500000	684.545000 
521.000000	656.249000 
521.500000	631.617000 
522.000000	594.744000 
522.500000	561.944000 
523.000000	530.044000 
523.500000	500.463000 
524.000000	459.218000 
524.500000	425.300000 
525.000000	398.883000 
525.500000	362.289000 
526.000000	338.572000 
526.500000	303.760000 
527.000000	279.214000 
527.500000	250.659000 
528.000000	224.206000 
528.500000	195.499000 
529.000000	175.372000 
529.500000	154.219000 
530.000000	134.233000 
530.500000	112.968000 
531.000000	96.956000  
531.500000	86.739999  
532.000000	76.283000  
532.500000	67.020000  
533.000000	62.433000  
533.500000	58.868000  
534.000000	56.939000  
534.500000	56.459000  
535.000000	53.620000  
535.500000	55.466000  
536.000000	55.150000  
536.500000	54.564000  
537.000000	55.028000  
537.500000	56.886000  
538.000000	58.876000  
538.500000	61.031000  
539.000000	62.472000  
539.500000	66.029000  
540.000000	68.244000  
540.500000	70.667000  
541.000000	76.498000  
541.500000	75.962999  
542.000000	78.464000  
542.500000	79.159000  
543.000000	82.857000  
543.500000	88.078000  
544.000000	90.101000  
544.500000	94.218999  
545.000000	95.956000  
545.500000	99.614000  
546.000000	99.727999  
546.500000	102.986000 
547.000000	106.515000 
547.500000	106.631000 
548.000000	109.174000 
548.500000	112.762000 

