PE FL                   SPECTRUM    ASCII       PEDS        1.60        
  -1
0174F9~1.SP
19/01/24
10:21:06.00
19/01/24
10:21:06.00


548.500000
1









LS45
290.00
10.00
10.00
SCAN
1
16
100
100
0
600
0
1
0
1
7
ON
435 365 
0 0 0
#HDR
-1
-1
#GR
NM
INT 
0.00002384185791015625
0.0
230.000000
0.500000
638
8
418.880000
0.313000
#DATA
230.000000	0.339000   
230.500000	0.573000   
231.000000	0.572000   
231.500000	0.345000   
232.000000	0.336000   
232.500000	0.469000   
233.000000	0.343000   
233.500000	0.412000   
234.000000	0.446000   
234.500000	0.431000   
235.000000	0.402000   
235.500000	0.519000   
236.000000	0.313000   
236.500000	0.502000   
237.000000	0.538000   
237.500000	0.490000   
238.000000	0.482000   
238.500000	0.401000   
239.000000	0.488000   
239.500000	0.594000   
240.000000	0.571000   
240.500000	0.618000   
241.000000	0.496000   
241.500000	0.431000   
242.000000	0.490000   
242.500000	0.460000   
243.000000	0.599000   
243.500000	0.687000   
244.000000	0.517000   
244.500000	0.418000   
245.000000	0.681000   
245.500000	0.515000   
246.000000	0.547000   
246.500000	0.667000   
247.000000	0.577000   
247.500000	0.570000   
248.000000	0.480000   
248.500000	0.737000   
249.000000	0.655000   
249.500000	0.679000   
250.000000	0.769000   
250.500000	0.707000   
251.000000	0.731000   
251.500000	0.792000   
252.000000	0.704000   
252.500000	0.662000   
253.000000	0.787000   
253.500000	0.727000   
254.000000	0.796000   
254.500000	0.868000   
255.000000	0.845000   
255.500000	0.722000   
256.000000	0.915000   
256.500000	1.075000   
257.000000	0.991000   
257.500000	0.825000   
258.000000	0.979000   
258.500000	0.910000   
259.000000	1.258000   
259.500000	1.198000   
260.000000	1.109000   
260.500000	1.285000   
261.000000	1.082000   
261.500000	1.155000   
262.000000	1.176000   
262.500000	1.502000   
263.000000	1.456000   
263.500000	1.680000   
264.000000	1.459000   
264.500000	1.545000   
265.000000	1.902000   
265.500000	1.782000   
266.000000	1.715000   
266.500000	1.936000   
267.000000	2.390000   
267.500000	2.287000   
268.000000	2.765000   
268.500000	2.869000   
269.000000	3.611000   
269.500000	4.799000   
270.000000	6.096000   
270.500000	7.455000   
271.000000	9.067000   
271.500000	12.087000  
272.000000	15.012000  
272.500000	19.652000  
273.000000	24.453000  
273.500000	31.708000  
274.000000	36.785000  
274.500000	44.917000  
275.000000	53.914000  
275.500000	64.081999  
276.000000	73.565000  
276.500000	86.703000  
277.000000	102.797000 
277.500000	116.443000 
278.000000	135.975000 
278.500000	148.560000 
279.000000	165.739000 
279.500000	183.410000 
280.000000	203.457000 
280.500000	220.490000 
281.000000	244.065000 
281.500000	263.981000 
282.000000	286.149000 
282.500000	302.909000 
283.000000	319.350000 
283.500000	337.886000 
284.000000	353.102000 
284.500000	371.922000 
285.000000	383.097000 
285.500000	396.032000 
286.000000	396.855000 
286.500000	408.534000 
287.000000	412.305000 
287.500000	412.516000 
288.000000	412.773000 
288.500000	418.880000 
289.000000	413.003000 
289.500000	401.880000 
290.000000	392.460000 
290.500000	380.256000 
291.000000	369.637000 
291.500000	357.314000 
292.000000	342.298000 
292.500000	330.368000 
293.000000	311.476000 
293.500000	293.057000 
294.000000	273.844000 
294.500000	258.482000 
295.000000	241.364000 
295.500000	222.894000 
296.000000	204.485000 
296.500000	183.333000 
297.000000	171.237000 
297.500000	152.527000 
298.000000	139.502000 
298.500000	122.074000 
299.000000	109.797000 
299.500000	95.502000  
300.000000	83.428000  
300.500000	70.992999  
301.000000	62.100000  
301.500000	56.715000  
302.000000	49.470000  
302.500000	46.060000  
303.000000	39.924000  
303.500000	37.156000  
304.000000	34.504000  
304.500000	32.194000  
305.000000	33.156000  
305.500000	32.537000  
306.000000	33.989000  
306.500000	35.758000  
307.000000	38.491000  
307.500000	39.735000  
308.000000	43.106000  
308.500000	46.738000  
309.000000	49.433000  
309.500000	56.016000  
310.000000	60.591000  
310.500000	66.739999  
311.000000	71.068000  
311.500000	79.188000  
312.000000	81.138000  
312.500000	87.980999  
313.000000	94.190000  
313.500000	98.770000  
314.000000	100.862000 
314.500000	105.707000 
315.000000	112.415000 
315.500000	119.691000 
316.000000	119.663000 
316.500000	123.761000 
317.000000	125.731000 
317.500000	128.786000 
318.000000	131.856000 
318.500000	127.645000 
319.000000	130.179000 
319.500000	129.157000 
320.000000	131.226000 
320.500000	128.757000 
321.000000	125.496000 
321.500000	122.789000 
322.000000	119.876000 
322.500000	116.337000 
323.000000	112.189000 
323.500000	108.708000 
324.000000	103.247000 
324.500000	99.126000  
325.000000	92.520000  
325.500000	88.801000  
326.000000	80.648000  
326.500000	77.985000  
327.000000	71.825999  
327.500000	66.384000  
328.000000	60.325000  
328.500000	55.596000  
329.000000	49.831000  
329.500000	47.277000  
330.000000	41.986000  
330.500000	38.876000  
331.000000	34.010000  
331.500000	31.448000  
332.000000	29.161000  
332.500000	24.880000  
333.000000	22.496000  
333.500000	19.561000  
334.000000	17.784000  
334.500000	15.760000  
335.000000	14.102000  
335.500000	12.406000  
336.000000	10.758000  
336.500000	10.104000  
337.000000	9.788000   
337.500000	8.628000   
338.000000	8.287000   
338.500000	7.396000   
339.000000	7.416000   
339.500000	6.406000   
340.000000	6.349000   
340.500000	5.480000   
341.000000	5.418000   
341.500000	5.588000   
342.000000	5.046000   
342.500000	4.613000   
343.000000	4.886000   
343.500000	4.453000   
344.000000	4.883000   
344.500000	4.862000   
345.000000	4.586000   
345.500000	4.334000   
346.000000	4.301000   
346.500000	4.171000   
347.000000	4.229000   
347.500000	4.125000   
348.000000	4.324000   
348.500000	4.031000   
349.000000	4.272000   
349.500000	4.193000   
350.000000	4.555000   
350.500000	4.023000   
351.000000	4.552000   
351.500000	4.250000   
352.000000	3.802000   
352.500000	3.800000   
353.000000	3.655000   
353.500000	3.691000   
354.000000	3.992000   
354.500000	3.722000   
355.000000	3.615000   
355.500000	3.324000   
356.000000	3.346000   
356.500000	3.593000   
357.000000	3.585000   
357.500000	3.545000   
358.000000	3.487000   
358.500000	3.515000   
359.000000	3.223000   
359.500000	3.113000   
360.000000	3.418000   
360.500000	3.810000   
361.000000	3.179000   
361.500000	2.943000   
362.000000	3.287000   
362.500000	3.093000   
363.000000	3.017000   
363.500000	2.931000   
364.000000	2.961000   
364.500000	2.718000   
365.000000	2.967000   
365.500000	2.686000   
366.000000	2.791000   
366.500000	2.991000   
367.000000	2.732000   
367.500000	2.582000   
368.000000	2.743000   
368.500000	2.447000   
369.000000	2.696000   
369.500000	2.553000   
370.000000	2.350000   
370.500000	2.530000   
371.000000	2.170000   
371.500000	2.469000   
372.000000	2.549000   
372.500000	2.595000   
373.000000	2.698000   
373.500000	2.690000   
374.000000	2.249000   
374.500000	2.547000   
375.000000	2.289000   
375.500000	2.450000   
376.000000	2.409000   
376.500000	2.355000   
377.000000	2.319000   
377.500000	2.458000   
378.000000	2.405000   
378.500000	2.311000   
379.000000	2.214000   
379.500000	2.220000   
380.000000	2.048000   
380.500000	1.943000   
381.000000	1.797000   
381.500000	1.778000   
382.000000	1.913000   
382.500000	1.920000   
383.000000	1.935000   
383.500000	2.046000   
384.000000	2.153000   
384.500000	2.041000   
385.000000	2.236000   
385.500000	2.009000   
386.000000	2.141000   
386.500000	1.922000   
387.000000	1.983000   
387.500000	2.025000   
388.000000	1.932000   
388.500000	2.435000   
389.000000	2.018000   
389.500000	1.890000   
390.000000	1.868000   
390.500000	1.822000   
391.000000	1.959000   
391.500000	2.028000   
392.000000	2.072000   
392.500000	1.959000   
393.000000	1.808000   
393.500000	1.835000   
394.000000	1.820000   
394.500000	1.918000   
395.000000	1.977000   
395.500000	1.779000   
396.000000	1.897000   
396.500000	2.136000   
397.000000	1.845000   
397.500000	1.989000   
398.000000	1.718000   
398.500000	1.564000   
399.000000	1.521000   
399.500000	1.773000   
400.000000	2.205000   
400.500000	1.731000   
401.000000	1.701000   
401.500000	1.717000   
402.000000	1.848000   
402.500000	2.033000   
403.000000	1.811000   
403.500000	1.893000   
404.000000	1.889000   
404.500000	1.856000   
405.000000	1.712000   
405.500000	1.854000   
406.000000	2.036000   
406.500000	1.788000   
407.000000	1.936000   
407.500000	1.850000   
408.000000	1.773000   
408.500000	1.636000   
409.000000	1.780000   
409.500000	1.871000   
410.000000	1.606000   
410.500000	1.786000   
411.000000	1.595000   
411.500000	1.743000   
412.000000	1.719000   
412.500000	1.783000   
413.000000	1.897000   
413.500000	1.793000   
414.000000	2.175000   
414.500000	1.699000   
415.000000	1.834000   
415.500000	1.815000   
416.000000	1.669000   
416.500000	2.006000   
417.000000	1.925000   
417.500000	1.769000   
418.000000	1.739000   
418.500000	1.780000   
419.000000	1.533000   
419.500000	1.567000   
420.000000	1.793000   
420.500000	1.784000   
421.000000	1.496000   
421.500000	1.602000   
422.000000	1.565000   
422.500000	1.952000   
423.000000	1.893000   
423.500000	1.584000   
424.000000	1.684000   
424.500000	1.600000   
425.000000	1.872000   
425.500000	1.759000   
426.000000	1.628000   
426.500000	1.753000   
427.000000	1.759000   
427.500000	1.809000   
428.000000	1.728000   
428.500000	1.496000   
429.000000	1.721000   
429.500000	1.868000   
430.000000	1.706000   
430.500000	1.528000   
431.000000	1.711000   
431.500000	1.566000   
432.000000	1.496000   
432.500000	1.647000   
433.000000	1.493000   
433.500000	1.645000   
434.000000	1.603000   
434.500000	1.688000   
435.000000	1.414000   
435.500000	1.441000   
436.000000	1.730000   
436.500000	1.816000   
437.000000	1.575000   
437.500000	1.530000   
438.000000	1.541000   
438.500000	1.527000   
439.000000	1.538000   
439.500000	1.763000   
440.000000	1.516000   
440.500000	1.670000   
441.000000	1.517000   
441.500000	1.557000   
442.000000	1.540000   
442.500000	1.553000   
443.000000	1.448000   
443.500000	1.437000   
444.000000	1.492000   
444.500000	1.583000   
445.000000	1.562000   
445.500000	1.702000   
446.000000	1.583000   
446.500000	1.601000   
447.000000	1.721000   
447.500000	1.466000   
448.000000	1.495000   
448.500000	1.515000   
449.000000	1.648000   
449.500000	1.865000   
450.000000	1.656000   
450.500000	1.710000   
451.000000	1.753000   
451.500000	1.761000   
452.000000	1.469000   
452.500000	1.559000   
453.000000	1.793000   
453.500000	1.907000   
454.000000	1.944000   
454.500000	1.678000   
455.000000	1.463000   
455.500000	1.655000   
456.000000	1.671000   
456.500000	1.900000   
457.000000	1.878000   
457.500000	1.907000   
458.000000	1.765000   
458.500000	2.231000   
459.000000	1.850000   
459.500000	1.881000   
460.000000	1.871000   
460.500000	1.949000   
461.000000	1.827000   
461.500000	1.802000   
462.000000	2.179000   
462.500000	1.797000   
463.000000	1.732000   
463.500000	1.397000   
464.000000	1.700000   
464.500000	1.779000   
465.000000	2.120000   
465.500000	2.087000   
466.000000	1.749000   
466.500000	1.698000   
467.000000	1.497000   
467.500000	1.499000   
468.000000	1.768000   
468.500000	1.681000   
469.000000	1.412000   
469.500000	1.654000   
470.000000	1.446000   
470.500000	1.583000   
471.000000	1.302000   
471.500000	1.314000   
472.000000	1.437000   
472.500000	1.400000   
473.000000	1.497000   
473.500000	1.542000   
474.000000	1.395000   
474.500000	1.395000   
475.000000	1.376000   
475.500000	1.554000   
476.000000	1.553000   
476.500000	1.516000   
477.000000	1.692000   
477.500000	1.580000   
478.000000	1.584000   
478.500000	1.547000   
479.000000	1.664000   
479.500000	1.308000   
480.000000	1.446000   
480.500000	1.894000   
481.000000	1.655000   
481.500000	1.473000   
482.000000	1.586000   
482.500000	1.650000   
483.000000	1.877000   
483.500000	1.533000   
484.000000	1.641000   
484.500000	1.390000   
485.000000	1.759000   
485.500000	1.669000   
486.000000	1.800000   
486.500000	1.811000   
487.000000	1.818000   
487.500000	1.772000   
488.000000	1.680000   
488.500000	1.694000   
489.000000	1.846000   
489.500000	1.453000   
490.000000	1.697000   
490.500000	2.012000   
491.000000	2.111000   
491.500000	1.796000   
492.000000	1.742000   
492.500000	1.909000   
493.000000	1.990000   
493.500000	2.059000   
494.000000	1.879000   
494.500000	1.857000   
495.000000	1.782000   
495.500000	1.989000   
496.000000	1.759000   
496.500000	1.779000   
497.000000	2.218000   
497.500000	1.936000   
498.000000	2.031000   
498.500000	1.693000   
499.000000	1.808000   
499.500000	1.899000   
500.000000	1.719000   
500.500000	1.903000   
501.000000	1.973000   
501.500000	1.779000   
502.000000	1.683000   
502.500000	1.683000   
503.000000	1.606000   
503.500000	1.945000   
504.000000	1.730000   
504.500000	1.793000   
505.000000	1.987000   
505.500000	1.790000   
506.000000	1.734000   
506.500000	1.727000   
507.000000	1.504000   
507.500000	1.543000   
508.000000	2.100000   
508.500000	1.813000   
509.000000	1.914000   
509.500000	1.813000   
510.000000	1.886000   
510.500000	1.716000   
511.000000	2.023000   
511.500000	1.739000   
512.000000	1.677000   
512.500000	1.829000   
513.000000	2.057000   
513.500000	2.144000   
514.000000	1.969000   
514.500000	2.033000   
515.000000	2.300000   
515.500000	2.054000   
516.000000	2.150000   
516.500000	2.178000   
517.000000	2.561000   
517.500000	2.328000   
518.000000	2.128000   
518.500000	2.118000   
519.000000	2.431000   
519.500000	2.256000   
520.000000	2.561000   
520.500000	2.708000   
521.000000	2.619000   
521.500000	2.622000   
522.000000	2.630000   
522.500000	2.303000   
523.000000	2.408000   
523.500000	2.488000   
524.000000	2.423000   
524.500000	2.213000   
525.000000	2.389000   
525.500000	2.411000   
526.000000	2.516000   
526.500000	2.187000   
527.000000	2.443000   
527.500000	2.416000   
528.000000	2.276000   
528.500000	2.511000   
529.000000	2.249000   
529.500000	2.500000   
530.000000	2.524000   
530.500000	2.518000   
531.000000	2.711000   
531.500000	2.554000   
532.000000	2.585000   
532.500000	2.274000   
533.000000	2.324000   
533.500000	2.459000   
534.000000	2.461000   
534.500000	2.593000   
535.000000	2.798000   
535.500000	2.469000   
536.000000	2.874000   
536.500000	2.719000   
537.000000	2.923000   
537.500000	2.906000   
538.000000	2.826000   
538.500000	3.173000   
539.000000	3.239000   
539.500000	3.054000   
540.000000	2.944000   
540.500000	3.024000   
541.000000	2.990000   
541.500000	2.680000   
542.000000	2.747000   
542.500000	3.156000   
543.000000	2.890000   
543.500000	3.313000   
544.000000	2.811000   
544.500000	2.889000   
545.000000	3.110000   
545.500000	2.994000   
546.000000	3.011000   
546.500000	3.404000   
547.000000	3.765000   
547.500000	3.842000   
548.000000	3.865000   
548.500000	4.266000   

