PE FL                   SPECTRUM    ASCII       PEDS        1.60        
  -1
0124SC~2.SP
19/01/24
13:12:24.00
19/01/24
13:12:24.00


548.500000
1









LS45
335.00
10.00
10.00
SCAN
1
16
100
100
0
600
0
1
0
1
7
ON
550 545 
0 0 0
#HDR
-1
-1
#GR
NM
INT 
0.00002384185791015625
0.0
230.000000
0.500000
638
8
999.999000
0.548000
#DATA
230.000000	0.570000   
230.500000	0.728000   
231.000000	0.724000   
231.500000	0.744000   
232.000000	0.670000   
232.500000	0.730000   
233.000000	0.708000   
233.500000	0.768000   
234.000000	0.843000   
234.500000	0.615000   
235.000000	0.749000   
235.500000	0.548000   
236.000000	0.640000   
236.500000	0.736000   
237.000000	0.824000   
237.500000	0.761000   
238.000000	0.790000   
238.500000	0.879000   
239.000000	0.898000   
239.500000	0.750000   
240.000000	0.692999   
240.500000	0.737000   
241.000000	0.728000   
241.500000	0.725000   
242.000000	0.614000   
242.500000	0.646000   
243.000000	0.716000   
243.500000	0.782000   
244.000000	0.822000   
244.500000	0.838000   
245.000000	0.696000   
245.500000	0.652000   
246.000000	0.721000   
246.500000	0.752000   
247.000000	0.645000   
247.500000	0.769000   
248.000000	0.671000   
248.500000	0.879000   
249.000000	0.776000   
249.500000	0.890000   
250.000000	0.719000   
250.500000	0.733000   
251.000000	0.722000   
251.500000	0.925000   
252.000000	0.984000   
252.500000	0.692999   
253.000000	0.797000   
253.500000	0.871000   
254.000000	0.841000   
254.500000	0.779000   
255.000000	0.837000   
255.500000	1.014000   
256.000000	1.000000   
256.500000	0.990000   
257.000000	0.813999   
257.500000	0.875000   
258.000000	1.010000   
258.500000	0.987000   
259.000000	1.016000   
259.500000	0.935000   
260.000000	0.834000   
260.500000	0.975000   
261.000000	1.079000   
261.500000	0.956000   
262.000000	1.053000   
262.500000	1.084000   
263.000000	0.987000   
263.500000	1.028000   
264.000000	1.142000   
264.500000	1.261000   
265.000000	1.084000   
265.500000	1.322000   
266.000000	1.288000   
266.500000	1.146000   
267.000000	1.272000   
267.500000	1.158000   
268.000000	1.252000   
268.500000	1.245000   
269.000000	1.108000   
269.500000	1.088000   
270.000000	1.096000   
270.500000	1.048000   
271.000000	0.963000   
271.500000	1.023000   
272.000000	1.301000   
272.500000	1.329000   
273.000000	1.140000   
273.500000	1.184000   
274.000000	1.150000   
274.500000	1.321000   
275.000000	1.468000   
275.500000	1.518000   
276.000000	1.477000   
276.500000	1.371000   
277.000000	1.320000   
277.500000	1.315000   
278.000000	1.465000   
278.500000	1.517000   
279.000000	1.550000   
279.500000	1.318000   
280.000000	1.514000   
280.500000	1.714000   
281.000000	1.828000   
281.500000	1.368000   
282.000000	1.537000   
282.500000	1.608000   
283.000000	1.837000   
283.500000	1.444000   
284.000000	1.536000   
284.500000	1.968000   
285.000000	1.750000   
285.500000	1.836000   
286.000000	1.940000   
286.500000	2.000000   
287.000000	1.616000   
287.500000	1.636000   
288.000000	1.998000   
288.500000	2.389000   
289.000000	2.150000   
289.500000	2.266000   
290.000000	2.151000   
290.500000	2.218000   
291.000000	2.421000   
291.500000	2.692000   
292.000000	2.699000   
292.500000	2.524000   
293.000000	2.907000   
293.500000	2.604000   
294.000000	2.842000   
294.500000	3.017000   
295.000000	2.565000   
295.500000	2.813000   
296.000000	2.800000   
296.500000	2.948000   
297.000000	3.058000   
297.500000	3.303000   
298.000000	3.227000   
298.500000	3.276000   
299.000000	3.704000   
299.500000	3.897000   
300.000000	3.497000   
300.500000	4.055000   
301.000000	4.163000   
301.500000	4.069000   
302.000000	4.036000   
302.500000	4.273000   
303.000000	4.490000   
303.500000	4.644000   
304.000000	5.176000   
304.500000	5.361000   
305.000000	5.283000   
305.500000	5.242000   
306.000000	6.072000   
306.500000	6.071000   
307.000000	5.994000   
307.500000	6.150000   
308.000000	6.471000   
308.500000	6.568000   
309.000000	6.685000   
309.500000	6.980000   
310.000000	7.759000   
310.500000	7.856000   
311.000000	8.417999   
311.500000	9.486000   
312.000000	9.750999   
312.500000	11.836000  
313.000000	13.950000  
313.500000	16.214000  
314.000000	19.865000  
314.500000	26.314000  
315.000000	33.379000  
315.500000	45.574000  
316.000000	55.907000  
316.500000	69.902000  
317.000000	88.539000  
317.500000	109.372000 
318.000000	131.100000 
318.500000	160.935000 
319.000000	196.577000 
319.500000	238.037000 
320.000000	288.962000 
320.500000	342.280000 
321.000000	398.827000 
321.500000	516.059999 
322.000000	527.455000 
322.500000	662.004000 
323.000000	674.427000 
323.500000	823.895000 
324.000000	904.881000 
324.500000	999.801000 
325.000000	999.999000 
325.500000	999.999000 
326.000000	999.999000 
326.500000	999.999000 
327.000000	999.999000 
327.500000	999.999000 
328.000000	999.999000 
328.500000	999.999000 
329.000000	999.999000 
329.500000	999.999000 
330.000000	999.999000 
330.500000	999.999000 
331.000000	999.999000 
331.500000	999.999000 
332.000000	999.999000 
332.500000	999.999000 
333.000000	999.999000 
333.500000	999.999000 
334.000000	999.999000 
334.500000	999.999000 
335.000000	999.999000 
335.500000	999.999000 
336.000000	999.999000 
336.500000	999.999000 
337.000000	999.999000 
337.500000	999.999000 
338.000000	999.999000 
338.500000	999.999000 
339.000000	938.336000 
339.500000	870.218000 
340.000000	780.524000 
340.500000	709.945000 
341.000000	625.837000 
341.500000	542.689000 
342.000000	529.945000 
342.500000	467.430000 
343.000000	410.472000 
343.500000	355.784000 
344.000000	300.796000 
344.500000	256.257000 
345.000000	208.223000 
345.500000	177.165000 
346.000000	139.040000 
346.500000	111.825000 
347.000000	90.912000  
347.500000	76.708000  
348.000000	60.245000  
348.500000	50.785000  
349.000000	41.870000  
349.500000	35.600000  
350.000000	31.085000  
350.500000	28.049000  
351.000000	25.398000  
351.500000	24.812000  
352.000000	23.996000  
352.500000	22.746000  
353.000000	24.130000  
353.500000	24.412000  
354.000000	24.789000  
354.500000	25.245000  
355.000000	26.116000  
355.500000	26.447000  
356.000000	27.329000  
356.500000	28.839000  
357.000000	30.245000  
357.500000	31.262000  
358.000000	32.376000  
358.500000	34.147000  
359.000000	35.628000  
359.500000	38.567000  
360.000000	40.593000  
360.500000	42.209000  
361.000000	43.843000  
361.500000	45.969000  
362.000000	49.946000  
362.500000	53.193000  
363.000000	56.206000  
363.500000	57.976000  
364.000000	61.575000  
364.500000	66.406000  
365.000000	69.340999  
365.500000	71.837999  
366.000000	76.169000  
366.500000	78.563999  
367.000000	83.217000  
367.500000	86.277000  
368.000000	89.860000  
368.500000	94.169000  
369.000000	97.871000  
369.500000	101.684000 
370.000000	104.818000 
370.500000	106.468000 
371.000000	108.069000 
371.500000	110.642000 
372.000000	112.467000 
372.500000	115.488000 
373.000000	115.917000 
373.500000	118.653000 
374.000000	120.323000 
374.500000	119.516000 
375.000000	121.345000 
375.500000	118.869000 
376.000000	119.594000 
376.500000	118.891000 
377.000000	117.697000 
377.500000	118.523000 
378.000000	116.718000 
378.500000	116.475000 
379.000000	112.565000 
379.500000	110.860000 
380.000000	108.956000 
380.500000	106.782000 
381.000000	106.429000 
381.500000	102.807000 
382.000000	100.644000 
382.500000	99.638000  
383.000000	98.033000  
383.500000	95.197000  
384.000000	92.894000  
384.500000	90.366000  
385.000000	89.104000  
385.500000	87.730000  
386.000000	84.779000  
386.500000	83.675000  
387.000000	82.611999  
387.500000	80.613000  
388.000000	79.602999  
388.500000	79.548000  
389.000000	78.896000  
389.500000	77.688000  
390.000000	76.290000  
390.500000	76.784000  
391.000000	77.146000  
391.500000	76.321000  
392.000000	75.385000  
392.500000	76.043000  
393.000000	75.912000  
393.500000	76.733999  
394.000000	76.605999  
394.500000	75.044000  
395.000000	77.994000  
395.500000	75.679000  
396.000000	76.947000  
396.500000	77.417000  
397.000000	79.066000  
397.500000	79.084000  
398.000000	79.021000  
398.500000	79.770000  
399.000000	80.042000  
399.500000	81.560000  
400.000000	81.708000  
400.500000	81.135000  
401.000000	82.513000  
401.500000	82.452000  
402.000000	84.910000  
402.500000	84.560000  
403.000000	84.730000  
403.500000	82.822000  
404.000000	83.456999  
404.500000	83.404000  
405.000000	85.988000  
405.500000	85.161000  
406.000000	86.465999  
406.500000	86.220000  
407.000000	85.956000  
407.500000	86.548000  
408.000000	87.241000  
408.500000	88.322000  
409.000000	87.242000  
409.500000	88.081999  
410.000000	88.789000  
410.500000	88.420000  
411.000000	87.988000  
411.500000	87.682000  
412.000000	88.783000  
412.500000	90.280000  
413.000000	89.715999  
413.500000	88.392000  
414.000000	88.640000  
414.500000	90.596999  
415.000000	89.896000  
415.500000	91.563999  
416.000000	90.114999  
416.500000	89.027000  
417.000000	89.381000  
417.500000	89.367000  
418.000000	87.858999  
418.500000	87.912000  
419.000000	89.657000  
419.500000	89.252000  
420.000000	89.208000  
420.500000	89.081999  
421.000000	89.985000  
421.500000	89.758000  
422.000000	88.019000  
422.500000	88.799000  
423.000000	88.555000  
423.500000	88.880000  
424.000000	87.645000  
424.500000	88.047000  
425.000000	86.813000  
425.500000	87.673000  
426.000000	87.771000  
426.500000	87.697000  
427.000000	88.404000  
427.500000	87.268000  
428.000000	86.940000  
428.500000	85.974999  
429.000000	86.334999  
429.500000	87.569999  
430.000000	86.166000  
430.500000	84.900000  
431.000000	82.599000  
431.500000	85.522000  
432.000000	85.525000  
432.500000	84.949000  
433.000000	85.528000  
433.500000	86.147000  
434.000000	84.678000  
434.500000	83.769000  
435.000000	83.631000  
435.500000	85.321000  
436.000000	84.562000  
436.500000	84.052000  
437.000000	82.128000  
437.500000	84.062000  
438.000000	83.382000  
438.500000	84.511000  
439.000000	84.991000  
439.500000	85.153000  
440.000000	84.401000  
440.500000	81.840999  
441.000000	80.361999  
441.500000	79.465999  
442.000000	81.416000  
442.500000	80.840000  
443.000000	80.849999  
443.500000	79.721999  
444.000000	81.188999  
444.500000	80.581999  
445.000000	80.053000  
445.500000	79.562000  
446.000000	78.792000  
446.500000	78.099999  
447.000000	79.503000  
447.500000	77.938000  
448.000000	76.694000  
448.500000	76.646000  
449.000000	76.105000  
449.500000	75.607000  
450.000000	75.630000  
450.500000	74.688999  
451.000000	75.136000  
451.500000	73.180000  
452.000000	72.937000  
452.500000	72.153000  
453.000000	71.793000  
453.500000	71.513000  
454.000000	71.414000  
454.500000	70.395000  
455.000000	70.146000  
455.500000	69.438000  
456.000000	70.023000  
456.500000	68.114000  
457.000000	68.295000  
457.500000	65.952000  
458.000000	67.020000  
458.500000	66.111999  
459.000000	65.215999  
459.500000	64.292000  
460.000000	63.448000  
460.500000	64.970000  
461.000000	62.486000  
461.500000	63.216000  
462.000000	63.899000  
462.500000	62.739000  
463.000000	61.036000  
463.500000	60.553000  
464.000000	60.007000  
464.500000	59.507000  
465.000000	60.103000  
465.500000	58.347000  
466.000000	58.826000  
466.500000	58.084000  
467.000000	56.875000  
467.500000	57.399000  
468.000000	57.161000  
468.500000	56.881000  
469.000000	55.382000  
469.500000	54.652000  
470.000000	54.213000  
470.500000	53.557000  
471.000000	53.026000  
471.500000	53.961000  
472.000000	54.516000  
472.500000	53.031000  
473.000000	52.700000  
473.500000	52.169000  
474.000000	50.697000  
474.500000	48.948000  
475.000000	50.205000  
475.500000	49.290000  
476.000000	49.822000  
476.500000	48.942000  
477.000000	47.915000  
477.500000	49.194000  
478.000000	48.360000  
478.500000	46.845000  
479.000000	46.945000  
479.500000	46.477000  
480.000000	46.810000  
480.500000	46.244000  
481.000000	46.455000  
481.500000	46.206000  
482.000000	46.317000  
482.500000	44.563000  
483.000000	44.065000  
483.500000	42.710000  
484.000000	43.672000  
484.500000	42.912000  
485.000000	43.120000  
485.500000	43.320000  
486.000000	42.900000  
486.500000	43.108000  
487.000000	42.705000  
487.500000	41.858000  
488.000000	41.332000  
488.500000	40.464000  
489.000000	41.090000  
489.500000	40.012000  
490.000000	40.560000  
490.500000	41.099000  
491.000000	39.381000  
491.500000	40.283000  
492.000000	40.490000  
492.500000	38.812000  
493.000000	38.044000  
493.500000	38.086000  
494.000000	38.692000  
494.500000	37.974000  
495.000000	36.556000  
495.500000	36.795000  
496.000000	37.536000  
496.500000	37.359000  
497.000000	36.398000  
497.500000	35.364000  
498.000000	34.801000  
498.500000	34.917000  
499.000000	34.282000  
499.500000	33.082000  
500.000000	33.472000  
500.500000	33.752000  
501.000000	33.178000  
501.500000	32.190000  
502.000000	32.841000  
502.500000	32.908000  
503.000000	33.058000  
503.500000	31.380000  
504.000000	30.648000  
504.500000	31.001000  
505.000000	30.939000  
505.500000	29.998000  
506.000000	30.287000  
506.500000	29.657000  
507.000000	29.612000  
507.500000	29.187000  
508.000000	28.814000  
508.500000	28.949000  
509.000000	28.228000  
509.500000	28.014000  
510.000000	26.560000  
510.500000	28.282000  
511.000000	27.498000  
511.500000	26.218000  
512.000000	26.314000  
512.500000	26.348000  
513.000000	26.673000  
513.500000	26.097000  
514.000000	25.368000  
514.500000	25.381000  
515.000000	24.969000  
515.500000	24.885000  
516.000000	25.099000  
516.500000	24.702000  
517.000000	24.911000  
517.500000	23.643000  
518.000000	24.008000  
518.500000	24.474000  
519.000000	24.009000  
519.500000	23.354000  
520.000000	23.615000  
520.500000	22.703000  
521.000000	22.976000  
521.500000	22.845000  
522.000000	21.710000  
522.500000	21.270000  
523.000000	21.620000  
523.500000	21.265000  
524.000000	21.574000  
524.500000	21.094000  
525.000000	20.597000  
525.500000	20.861000  
526.000000	20.383000  
526.500000	19.981000  
527.000000	19.488000  
527.500000	18.904000  
528.000000	19.369000  
528.500000	18.791000  
529.000000	18.371000  
529.500000	18.380000  
530.000000	18.298000  
530.500000	18.318000  
531.000000	17.737000  
531.500000	18.218000  
532.000000	17.349000  
532.500000	17.138000  
533.000000	16.266000  
533.500000	16.350000  
534.000000	16.666000  
534.500000	16.176000  
535.000000	16.790000  
535.500000	16.059000  
536.000000	15.451000  
536.500000	15.780000  
537.000000	15.703000  
537.500000	14.154000  
538.000000	14.614000  
538.500000	14.773000  
539.000000	15.258000  
539.500000	14.240000  
540.000000	14.191000  
540.500000	14.200000  
541.000000	14.025000  
541.500000	13.944000  
542.000000	14.105000  
542.500000	13.155000  
543.000000	13.603000  
543.500000	13.552000  
544.000000	12.346000  
544.500000	12.030000  
545.000000	12.501000  
545.500000	12.131000  
546.000000	12.054000  
546.500000	11.879000  
547.000000	11.164000  
547.500000	11.421000  
548.000000	11.229000  
548.500000	11.404000  

