PE FL                   SPECTRUM    ASCII       PEDS        1.60        
  -1
0124SC~4.SP
19/01/24
13:10:54.00
19/01/24
13:10:54.00


548.500000
1









LS45
325.00
10.00
10.00
SCAN
1
16
100
100
0
600
0
1
0
1
7
ON
550 545 
0 0 0
#HDR
-1
-1
#GR
NM
INT 
0.00002384185791015625
0.0
230.000000
0.500000
638
8
999.999000
0.535000
#DATA
230.000000	0.837000   
230.500000	0.677000   
231.000000	0.710000   
231.500000	0.857000   
232.000000	0.757000   
232.500000	0.653000   
233.000000	0.743000   
233.500000	0.683000   
234.000000	0.722000   
234.500000	0.887000   
235.000000	0.724000   
235.500000	0.871000   
236.000000	0.778000   
236.500000	0.841000   
237.000000	0.831000   
237.500000	0.584000   
238.000000	0.662000   
238.500000	0.757000   
239.000000	0.715000   
239.500000	0.751000   
240.000000	0.535000   
240.500000	0.708000   
241.000000	0.773000   
241.500000	0.830000   
242.000000	0.880000   
242.500000	0.897000   
243.000000	0.742000   
243.500000	0.803000   
244.000000	1.004000   
244.500000	0.850000   
245.000000	0.867000   
245.500000	0.823000   
246.000000	0.804000   
246.500000	0.927000   
247.000000	1.104000   
247.500000	0.892000   
248.000000	0.910000   
248.500000	0.739000   
249.000000	0.850000   
249.500000	0.892000   
250.000000	0.961000   
250.500000	0.950000   
251.000000	0.821000   
251.500000	0.925000   
252.000000	0.990000   
252.500000	0.896000   
253.000000	0.821000   
253.500000	1.110000   
254.000000	1.092000   
254.500000	0.851000   
255.000000	1.117000   
255.500000	0.971000   
256.000000	0.954000   
256.500000	0.952000   
257.000000	1.000000   
257.500000	0.867000   
258.000000	0.968000   
258.500000	1.034000   
259.000000	1.129000   
259.500000	1.213000   
260.000000	0.967000   
260.500000	1.059000   
261.000000	1.030000   
261.500000	1.066000   
262.000000	1.235000   
262.500000	1.069000   
263.000000	1.108000   
263.500000	1.062000   
264.000000	1.245000   
264.500000	1.275000   
265.000000	1.453000   
265.500000	1.103000   
266.000000	1.268000   
266.500000	1.250000   
267.000000	1.177000   
267.500000	1.352000   
268.000000	1.089000   
268.500000	1.251000   
269.000000	1.341000   
269.500000	1.250000   
270.000000	1.478000   
270.500000	1.492000   
271.000000	1.625000   
271.500000	1.476000   
272.000000	1.394000   
272.500000	1.362000   
273.000000	1.392000   
273.500000	1.537000   
274.000000	1.729000   
274.500000	1.617000   
275.000000	1.767000   
275.500000	1.744000   
276.000000	1.682000   
276.500000	1.837000   
277.000000	1.846000   
277.500000	1.876000   
278.000000	1.875000   
278.500000	2.113000   
279.000000	2.048000   
279.500000	1.984000   
280.000000	1.906000   
280.500000	1.869000   
281.000000	2.081000   
281.500000	2.308000   
282.000000	2.111000   
282.500000	2.251000   
283.000000	2.290000   
283.500000	2.498000   
284.000000	2.452000   
284.500000	2.595000   
285.000000	2.452000   
285.500000	2.738000   
286.000000	2.736000   
286.500000	2.689000   
287.000000	2.664000   
287.500000	2.902000   
288.000000	2.895000   
288.500000	3.098000   
289.000000	3.441000   
289.500000	3.347000   
290.000000	3.365000   
290.500000	3.657000   
291.000000	3.635000   
291.500000	3.795000   
292.000000	4.045000   
292.500000	3.826000   
293.000000	3.787000   
293.500000	4.088000   
294.000000	3.823000   
294.500000	4.473000   
295.000000	4.792000   
295.500000	4.965000   
296.000000	4.895000   
296.500000	4.913000   
297.000000	5.313000   
297.500000	5.786000   
298.000000	5.762000   
298.500000	5.751000   
299.000000	5.924000   
299.500000	6.106000   
300.000000	6.389000   
300.500000	6.954000   
301.000000	7.191000   
301.500000	8.417999   
302.000000	8.651000   
302.500000	10.036000  
303.000000	12.090000  
303.500000	15.137000  
304.000000	19.171000  
304.500000	23.544000  
305.000000	30.877000  
305.500000	37.093000  
306.000000	48.040000  
306.500000	61.833000  
307.000000	77.671000  
307.500000	99.203999  
308.000000	119.495000 
308.500000	146.857000 
309.000000	171.524000 
309.500000	213.987000 
310.000000	245.107000 
310.500000	296.239000 
311.000000	345.064000 
311.500000	399.756000 
312.000000	501.762000 
312.500000	511.930000 
313.000000	621.708000 
313.500000	633.952000 
314.000000	759.223000 
314.500000	828.875000 
315.000000	926.716000 
315.500000	938.749000 
316.000000	998.668000 
316.500000	999.999000 
317.000000	999.999000 
317.500000	999.999000 
318.000000	999.999000 
318.500000	999.999000 
319.000000	999.999000 
319.500000	999.999000 
320.000000	999.999000 
320.500000	999.999000 
321.000000	999.999000 
321.500000	999.999000 
322.000000	999.999000 
322.500000	999.999000 
323.000000	999.999000 
323.500000	999.999000 
324.000000	999.999000 
324.500000	999.999000 
325.000000	999.999000 
325.500000	999.999000 
326.000000	999.999000 
326.500000	999.999000 
327.000000	999.999000 
327.500000	999.999000 
328.000000	999.999000 
328.500000	900.263000 
329.000000	888.633000 
329.500000	763.582000 
330.000000	697.956000 
330.500000	628.434000 
331.000000	555.952000 
331.500000	543.320000 
332.000000	480.284000 
332.500000	417.394000 
333.000000	357.066000 
333.500000	313.370000 
334.000000	272.461000 
334.500000	225.534000 
335.000000	192.763000 
335.500000	157.143000 
336.000000	135.759000 
336.500000	104.690000 
337.000000	87.617000  
337.500000	65.871000  
338.000000	57.716000  
338.500000	46.843000  
339.000000	39.119000  
339.500000	32.714000  
340.000000	29.198000  
340.500000	26.393000  
341.000000	24.622000  
341.500000	23.815000  
342.000000	23.080000  
342.500000	23.341000  
343.000000	22.593000  
343.500000	23.621000  
344.000000	24.250000  
344.500000	25.196000  
345.000000	26.432000  
345.500000	27.368000  
346.000000	30.313000  
346.500000	32.563000  
347.000000	34.142000  
347.500000	35.725000  
348.000000	38.005000  
348.500000	39.899000  
349.000000	43.827000  
349.500000	45.908000  
350.000000	49.527000  
350.500000	51.547000  
351.000000	56.955000  
351.500000	58.660000  
352.000000	62.134000  
352.500000	66.932000  
353.000000	70.941000  
353.500000	75.186000  
354.000000	78.703999  
354.500000	80.937000  
355.000000	85.515000  
355.500000	87.911000  
356.000000	91.653000  
356.500000	94.183000  
357.000000	97.221999  
357.500000	99.302000  
358.000000	103.889000 
358.500000	105.692000 
359.000000	105.850000 
359.500000	109.342000 
360.000000	109.221000 
360.500000	112.929000 
361.000000	109.946000 
361.500000	112.594000 
362.000000	111.679000 
362.500000	111.798000 
363.000000	113.762000 
363.500000	110.140000 
364.000000	109.398000 
364.500000	107.932000 
365.000000	107.087000 
365.500000	104.873000 
366.000000	103.152000 
366.500000	103.765000 
367.000000	99.638000  
367.500000	97.280000  
368.000000	95.479000  
368.500000	93.282000  
369.000000	92.402000  
369.500000	89.126000  
370.000000	85.872000  
370.500000	86.159000  
371.000000	83.918000  
371.500000	82.843000  
372.000000	80.334000  
372.500000	80.755000  
373.000000	77.569000  
373.500000	76.066000  
374.000000	73.505000  
374.500000	72.278000  
375.000000	72.128000  
375.500000	72.799000  
376.000000	73.279000  
376.500000	71.633000  
377.000000	71.770000  
377.500000	70.652000  
378.000000	72.230999  
378.500000	72.069999  
379.000000	71.947000  
379.500000	71.390000  
380.000000	71.724999  
380.500000	71.367999  
381.000000	71.355000  
381.500000	72.282000  
382.000000	73.669000  
382.500000	74.312000  
383.000000	74.565000  
383.500000	75.459999  
384.000000	75.166000  
384.500000	76.709000  
385.000000	76.409000  
385.500000	77.162000  
386.000000	79.202000  
386.500000	79.628000  
387.000000	77.639000  
387.500000	78.959999  
388.000000	78.065000  
388.500000	81.224000  
389.000000	81.622000  
389.500000	81.682000  
390.000000	82.176000  
390.500000	82.074000  
391.000000	82.426000  
391.500000	84.060000  
392.000000	84.170000  
392.500000	85.587000  
393.000000	86.113000  
393.500000	84.008000  
394.000000	86.537000  
394.500000	86.093999  
395.000000	87.431000  
395.500000	88.404000  
396.000000	87.313000  
396.500000	88.674000  
397.000000	88.848000  
397.500000	88.687000  
398.000000	88.473000  
398.500000	89.730000  
399.000000	89.467000  
399.500000	90.227000  
400.000000	91.762000  
400.500000	90.941999  
401.000000	91.330000  
401.500000	91.370000  
402.000000	91.883000  
402.500000	92.048000  
403.000000	93.093000  
403.500000	92.471999  
404.000000	93.020000  
404.500000	93.181000  
405.000000	94.770000  
405.500000	94.270000  
406.000000	95.556000  
406.500000	93.119000  
407.000000	95.346000  
407.500000	94.793000  
408.000000	95.465999  
408.500000	92.991000  
409.000000	94.534000  
409.500000	94.871000  
410.000000	94.965000  
410.500000	94.180000  
411.000000	95.336000  
411.500000	94.194999  
412.000000	94.548000  
412.500000	95.489999  
413.000000	97.078999  
413.500000	95.298000  
414.000000	92.471999  
414.500000	93.715000  
415.000000	92.364999  
415.500000	93.230999  
416.000000	93.183000  
416.500000	93.092000  
417.000000	92.688999  
417.500000	92.191000  
418.000000	91.027000  
418.500000	90.550000  
419.000000	91.397000  
419.500000	90.247000  
420.000000	90.523000  
420.500000	89.874000  
421.000000	89.282000  
421.500000	88.017000  
422.000000	88.175000  
422.500000	87.143000  
423.000000	87.123000  
423.500000	86.986000  
424.000000	86.742000  
424.500000	86.983999  
425.000000	87.715000  
425.500000	86.489999  
426.000000	85.558000  
426.500000	86.503000  
427.000000	85.328999  
427.500000	85.599999  
428.000000	84.705000  
428.500000	84.988000  
429.000000	83.414000  
429.500000	83.322000  
430.000000	84.301000  
430.500000	83.098000  
431.000000	82.334999  
431.500000	82.521000  
432.000000	81.041000  
432.500000	81.340999  
433.000000	82.298000  
433.500000	83.718000  
434.000000	81.548000  
434.500000	78.927000  
435.000000	79.696000  
435.500000	79.074000  
436.000000	79.721999  
436.500000	78.620000  
437.000000	80.065000  
437.500000	79.664000  
438.000000	77.352000  
438.500000	79.634000  
439.000000	78.261000  
439.500000	77.927000  
440.000000	77.828999  
440.500000	77.098000  
441.000000	76.608000  
441.500000	74.659000  
442.000000	75.349000  
442.500000	75.149000  
443.000000	74.943000  
443.500000	76.322999  
444.000000	73.380000  
444.500000	73.636000  
445.000000	71.837999  
445.500000	73.093999  
446.000000	70.735000  
446.500000	72.456000  
447.000000	72.537000  
447.500000	71.601000  
448.000000	70.220000  
448.500000	70.310000  
449.000000	69.622000  
449.500000	69.539000  
450.000000	67.997000  
450.500000	67.662000  
451.000000	65.885000  
451.500000	67.306000  
452.000000	65.444000  
452.500000	64.724999  
453.000000	65.770000  
453.500000	64.947000  
454.000000	64.524000  
454.500000	63.860000  
455.000000	63.456000  
455.500000	63.235000  
456.000000	62.624000  
456.500000	61.863000  
457.000000	61.784000  
457.500000	62.095000  
458.000000	60.207000  
458.500000	60.310000  
459.000000	58.460000  
459.500000	59.306000  
460.000000	58.992000  
460.500000	57.874000  
461.000000	56.015000  
461.500000	56.636000  
462.000000	57.120000  
462.500000	55.420000  
463.000000	53.980000  
463.500000	54.014000  
464.000000	53.436000  
464.500000	54.273000  
465.000000	52.787000  
465.500000	52.014000  
466.000000	51.719000  
466.500000	51.762000  
467.000000	50.675000  
467.500000	50.890000  
468.000000	49.345000  
468.500000	48.748000  
469.000000	48.969000  
469.500000	48.396000  
470.000000	47.289000  
470.500000	48.111000  
471.000000	46.615000  
471.500000	47.050000  
472.000000	46.606000  
472.500000	45.362000  
473.000000	45.197000  
473.500000	45.648000  
474.000000	45.495000  
474.500000	44.538000  
475.000000	43.305000  
475.500000	43.042000  
476.000000	42.068000  
476.500000	42.928000  
477.000000	43.469000  
477.500000	43.066000  
478.000000	42.023000  
478.500000	41.238000  
479.000000	40.959000  
479.500000	40.460000  
480.000000	41.051000  
480.500000	39.470000  
481.000000	39.215000  
481.500000	39.053000  
482.000000	38.794000  
482.500000	39.108000  
483.000000	37.853000  
483.500000	37.908000  
484.000000	36.888000  
484.500000	37.168000  
485.000000	37.595000  
485.500000	37.473000  
486.000000	36.758000  
486.500000	34.722000  
487.000000	35.640000  
487.500000	35.795000  
488.000000	35.578000  
488.500000	35.554000  
489.000000	34.735000  
489.500000	34.346000  
490.000000	33.334000  
490.500000	34.220000  
491.000000	34.455000  
491.500000	33.361000  
492.000000	33.187000  
492.500000	32.934000  
493.000000	32.705000  
493.500000	32.677000  
494.000000	32.444000  
494.500000	31.608000  
495.000000	31.511000  
495.500000	30.920000  
496.000000	30.232000  
496.500000	29.788000  
497.000000	29.398000  
497.500000	29.383000  
498.000000	28.904000  
498.500000	28.929000  
499.000000	29.567000  
499.500000	28.315000  
500.000000	27.187000  
500.500000	27.338000  
501.000000	26.845000  
501.500000	27.133000  
502.000000	26.039000  
502.500000	26.435000  
503.000000	26.397000  
503.500000	27.008000  
504.000000	27.124000  
504.500000	26.182000  
505.000000	24.422000  
505.500000	25.079000  
506.000000	25.273000  
506.500000	24.382000  
507.000000	24.906000  
507.500000	24.115000  
508.000000	24.328000  
508.500000	23.852000  
509.000000	22.787000  
509.500000	22.214000  
510.000000	22.584000  
510.500000	22.254000  
511.000000	22.467000  
511.500000	22.180000  
512.000000	21.718000  
512.500000	21.312000  
513.000000	21.973000  
513.500000	21.362000  
514.000000	20.952000  
514.500000	21.739000  
515.000000	20.602000  
515.500000	19.730000  
516.000000	19.112000  
516.500000	19.218000  
517.000000	19.573000  
517.500000	19.276000  
518.000000	19.519000  
518.500000	19.045000  
519.000000	19.523000  
519.500000	19.221000  
520.000000	18.518000  
520.500000	18.138000  
521.000000	17.610000  
521.500000	18.554000  
522.000000	17.290000  
522.500000	17.722000  
523.000000	17.308000  
523.500000	17.148000  
524.000000	16.990000  
524.500000	16.782000  
525.000000	16.226000  
525.500000	16.206000  
526.000000	16.463000  
526.500000	16.206000  
527.000000	15.731000  
527.500000	15.910000  
528.000000	15.639000  
528.500000	15.647000  
529.000000	15.418000  
529.500000	15.453000  
530.000000	14.748000  
530.500000	14.884000  
531.000000	14.195000  
531.500000	14.067000  
532.000000	14.161000  
532.500000	13.649000  
533.000000	13.184000  
533.500000	12.949000  
534.000000	12.801000  
534.500000	13.295000  
535.000000	13.001000  
535.500000	12.322000  
536.000000	12.272000  
536.500000	12.690000  
537.000000	12.752000  
537.500000	12.058000  
538.000000	11.363000  
538.500000	11.342000  
539.000000	11.102000  
539.500000	11.486000  
540.000000	11.383000  
540.500000	11.073000  
541.000000	10.671000  
541.500000	10.629000  
542.000000	10.672000  
542.500000	11.245000  
543.000000	10.417000  
543.500000	10.767000  
544.000000	10.491000  
544.500000	10.166000  
545.000000	10.253000  
545.500000	9.869999   
546.000000	9.526999   
546.500000	8.959000   
547.000000	9.452000   
547.500000	9.464000   
548.000000	9.066000   
548.500000	9.537000   

