PE FL                   SPECTRUM    ASCII       PEDS        1.60        
  -1
013D07~1.SP
19/01/24
13:41:05.00
19/01/24
13:41:05.00


548.500000
1









LS45
525.00
10.00
10.00
SCAN
1
16
100
100
0
600
0
1
0
1
7
ON
550 545 
0 0 0
#HDR
-1
-1
#GR
NM
INT 
0.00002384185791015625
0.0
230.000000
0.500000
638
8
346.557000
0.018000
#DATA
230.000000	0.060000   
230.500000	0.037000   
231.000000	0.056000   
231.500000	0.053000   
232.000000	0.055000   
232.500000	0.083000   
233.000000	0.053000   
233.500000	0.064000   
234.000000	0.051000   
234.500000	0.111000   
235.000000	0.206000   
235.500000	0.018000   
236.000000	0.044000   
236.500000	0.064000   
237.000000	0.076000   
237.500000	0.070999   
238.000000	0.053000   
238.500000	0.051000   
239.000000	0.069000   
239.500000	0.061000   
240.000000	0.070999   
240.500000	0.100000   
241.000000	0.076000   
241.500000	0.065000   
242.000000	0.030000   
242.500000	0.067000   
243.000000	0.043000   
243.500000	0.087999   
244.000000	0.098000   
244.500000	0.085999   
245.000000	0.080000   
245.500000	0.126000   
246.000000	0.175000   
246.500000	0.246000   
247.000000	0.345000   
247.500000	0.493000   
248.000000	0.651000   
248.500000	0.919000   
249.000000	0.995000   
249.500000	1.251000   
250.000000	1.568000   
250.500000	1.868000   
251.000000	2.033000   
251.500000	2.538000   
252.000000	2.711000   
252.500000	3.069000   
253.000000	3.477000   
253.500000	3.593000   
254.000000	4.101000   
254.500000	4.515000   
255.000000	4.835000   
255.500000	4.731000   
256.000000	5.460000   
256.500000	5.622000   
257.000000	6.268000   
257.500000	6.508000   
258.000000	6.700000   
258.500000	6.738000   
259.000000	6.729000   
259.500000	6.852000   
260.000000	6.822000   
260.500000	6.627000   
261.000000	6.461000   
261.500000	6.572000   
262.000000	6.287000   
262.500000	5.718000   
263.000000	5.557000   
263.500000	5.452000   
264.000000	4.850000   
264.500000	4.276000   
265.000000	4.221000   
265.500000	4.041000   
266.000000	3.547000   
266.500000	3.387000   
267.000000	2.762000   
267.500000	2.651000   
268.000000	2.344000   
268.500000	1.996000   
269.000000	1.592000   
269.500000	1.249000   
270.000000	1.127000   
270.500000	0.750000   
271.000000	0.773000   
271.500000	0.627000   
272.000000	0.477000   
272.500000	0.435000   
273.000000	0.352000   
273.500000	0.312000   
274.000000	0.444000   
274.500000	0.424000   
275.000000	0.496000   
275.500000	0.506000   
276.000000	0.487000   
276.500000	0.556000   
277.000000	0.695000   
277.500000	0.881000   
278.000000	0.896000   
278.500000	0.897000   
279.000000	1.026000   
279.500000	1.049000   
280.000000	1.140000   
280.500000	1.118000   
281.000000	1.228000   
281.500000	1.007000   
282.000000	1.180000   
282.500000	1.331000   
283.000000	1.371000   
283.500000	1.378000   
284.000000	1.360000   
284.500000	1.449000   
285.000000	1.275000   
285.500000	1.275000   
286.000000	1.255000   
286.500000	1.263000   
287.000000	1.307000   
287.500000	1.489000   
288.000000	1.291000   
288.500000	1.339000   
289.000000	1.160000   
289.500000	1.087000   
290.000000	1.129000   
290.500000	1.106000   
291.000000	0.920000   
291.500000	0.926000   
292.000000	0.973000   
292.500000	0.862000   
293.000000	0.618000   
293.500000	0.709000   
294.000000	0.551000   
294.500000	0.623000   
295.000000	0.541000   
295.500000	0.608000   
296.000000	0.552000   
296.500000	0.480000   
297.000000	0.472000   
297.500000	0.509000   
298.000000	0.350000   
298.500000	0.394000   
299.000000	0.423000   
299.500000	0.429000   
300.000000	0.424000   
300.500000	0.377000   
301.000000	0.467000   
301.500000	0.428000   
302.000000	0.470000   
302.500000	0.373000   
303.000000	0.418000   
303.500000	0.522000   
304.000000	0.495000   
304.500000	0.564999   
305.000000	0.514000   
305.500000	0.426000   
306.000000	0.520000   
306.500000	0.507000   
307.000000	0.451000   
307.500000	0.466000   
308.000000	0.591000   
308.500000	0.614000   
309.000000	0.594000   
309.500000	0.639000   
310.000000	0.578000   
310.500000	0.572000   
311.000000	0.583000   
311.500000	0.618000   
312.000000	0.719000   
312.500000	0.727000   
313.000000	0.749000   
313.500000	0.742000   
314.000000	0.846000   
314.500000	0.811000   
315.000000	0.692999   
315.500000	0.754000   
316.000000	0.701000   
316.500000	0.799000   
317.000000	0.847000   
317.500000	0.777000   
318.000000	0.837000   
318.500000	0.850000   
319.000000	0.824000   
319.500000	0.832000   
320.000000	0.894000   
320.500000	0.982000   
321.000000	0.931000   
321.500000	0.900000   
322.000000	0.963000   
322.500000	0.899000   
323.000000	1.003000   
323.500000	0.926000   
324.000000	0.946000   
324.500000	1.025000   
325.000000	1.103000   
325.500000	1.009000   
326.000000	1.136000   
326.500000	1.266000   
327.000000	1.209000   
327.500000	1.338000   
328.000000	1.215000   
328.500000	1.375000   
329.000000	1.299000   
329.500000	1.280000   
330.000000	1.228000   
330.500000	1.405000   
331.000000	1.438000   
331.500000	1.516000   
332.000000	1.498000   
332.500000	1.565000   
333.000000	1.412000   
333.500000	1.469000   
334.000000	1.561000   
334.500000	1.473000   
335.000000	1.612000   
335.500000	1.594000   
336.000000	1.696000   
336.500000	1.699000   
337.000000	1.551000   
337.500000	1.590000   
338.000000	1.521000   
338.500000	1.643000   
339.000000	1.680000   
339.500000	1.659000   
340.000000	1.643000   
340.500000	1.701000   
341.000000	1.693000   
341.500000	1.819000   
342.000000	1.539000   
342.500000	1.776000   
343.000000	1.864000   
343.500000	1.936000   
344.000000	1.674000   
344.500000	1.748000   
345.000000	1.936000   
345.500000	1.954000   
346.000000	2.029000   
346.500000	1.974000   
347.000000	2.009000   
347.500000	1.775000   
348.000000	1.882000   
348.500000	1.938000   
349.000000	1.895000   
349.500000	1.619000   
350.000000	1.792000   
350.500000	1.843000   
351.000000	1.816000   
351.500000	1.853000   
352.000000	1.939000   
352.500000	2.230000   
353.000000	1.904000   
353.500000	1.913000   
354.000000	1.786000   
354.500000	1.937000   
355.000000	1.820000   
355.500000	1.913000   
356.000000	1.881000   
356.500000	1.945000   
357.000000	1.954000   
357.500000	2.141000   
358.000000	1.972000   
358.500000	1.926000   
359.000000	2.091000   
359.500000	1.904000   
360.000000	1.910000   
360.500000	1.933000   
361.000000	2.057000   
361.500000	2.038000   
362.000000	1.763000   
362.500000	1.726000   
363.000000	1.840000   
363.500000	2.119000   
364.000000	2.110000   
364.500000	2.016000   
365.000000	1.945000   
365.500000	1.917000   
366.000000	2.035000   
366.500000	2.037000   
367.000000	1.953000   
367.500000	1.754000   
368.000000	1.977000   
368.500000	2.019000   
369.000000	1.881000   
369.500000	2.060000   
370.000000	1.970000   
370.500000	2.173000   
371.000000	2.018000   
371.500000	1.921000   
372.000000	2.081000   
372.500000	1.925000   
373.000000	1.939000   
373.500000	2.014000   
374.000000	1.866000   
374.500000	1.736000   
375.000000	1.777000   
375.500000	1.829000   
376.000000	1.694000   
376.500000	1.767000   
377.000000	2.003000   
377.500000	1.819000   
378.000000	1.818000   
378.500000	1.864000   
379.000000	1.678000   
379.500000	1.891000   
380.000000	1.798000   
380.500000	1.796000   
381.000000	1.849000   
381.500000	1.873000   
382.000000	1.816000   
382.500000	1.895000   
383.000000	1.838000   
383.500000	1.841000   
384.000000	1.655000   
384.500000	1.970000   
385.000000	1.888000   
385.500000	1.742000   
386.000000	1.730000   
386.500000	1.799000   
387.000000	1.668000   
387.500000	1.644000   
388.000000	1.898000   
388.500000	1.871000   
389.000000	1.829000   
389.500000	1.707000   
390.000000	1.708000   
390.500000	1.823000   
391.000000	1.731000   
391.500000	1.770000   
392.000000	1.806000   
392.500000	1.710000   
393.000000	1.687000   
393.500000	1.690000   
394.000000	1.495000   
394.500000	1.683000   
395.000000	1.590000   
395.500000	1.535000   
396.000000	1.657000   
396.500000	1.749000   
397.000000	1.419000   
397.500000	1.575000   
398.000000	1.664000   
398.500000	1.609000   
399.000000	1.551000   
399.500000	1.710000   
400.000000	1.789000   
400.500000	1.706000   
401.000000	1.688000   
401.500000	1.607000   
402.000000	1.598000   
402.500000	1.711000   
403.000000	1.536000   
403.500000	1.489000   
404.000000	1.446000   
404.500000	1.725000   
405.000000	1.806000   
405.500000	1.625000   
406.000000	1.518000   
406.500000	1.559000   
407.000000	1.658000   
407.500000	1.745000   
408.000000	1.680000   
408.500000	1.626000   
409.000000	1.649000   
409.500000	1.702000   
410.000000	1.669000   
410.500000	1.621000   
411.000000	1.554000   
411.500000	1.573000   
412.000000	1.716000   
412.500000	1.799000   
413.000000	1.748000   
413.500000	1.629000   
414.000000	1.750000   
414.500000	1.579000   
415.000000	1.800000   
415.500000	1.986000   
416.000000	1.907000   
416.500000	1.506000   
417.000000	1.772000   
417.500000	1.741000   
418.000000	1.655000   
418.500000	1.681000   
419.000000	1.727000   
419.500000	1.811000   
420.000000	1.820000   
420.500000	1.587000   
421.000000	1.757000   
421.500000	1.719000   
422.000000	1.823000   
422.500000	2.035000   
423.000000	2.009000   
423.500000	1.885000   
424.000000	1.957000   
424.500000	1.807000   
425.000000	1.735000   
425.500000	1.811000   
426.000000	1.698000   
426.500000	1.795000   
427.000000	1.975000   
427.500000	2.004000   
428.000000	1.882000   
428.500000	2.056000   
429.000000	1.923000   
429.500000	1.746000   
430.000000	1.832000   
430.500000	1.992000   
431.000000	1.991000   
431.500000	1.827000   
432.000000	1.853000   
432.500000	2.039000   
433.000000	2.095000   
433.500000	1.975000   
434.000000	2.039000   
434.500000	1.951000   
435.000000	2.042000   
435.500000	2.057000   
436.000000	2.109000   
436.500000	2.030000   
437.000000	2.010000   
437.500000	1.991000   
438.000000	1.951000   
438.500000	2.038000   
439.000000	2.199000   
439.500000	2.302000   
440.000000	2.230000   
440.500000	2.158000   
441.000000	2.437000   
441.500000	2.085000   
442.000000	2.264000   
442.500000	2.231000   
443.000000	2.268000   
443.500000	2.218000   
444.000000	2.377000   
444.500000	2.295000   
445.000000	2.015000   
445.500000	2.020000   
446.000000	2.211000   
446.500000	2.161000   
447.000000	2.216000   
447.500000	2.021000   
448.000000	2.287000   
448.500000	2.284000   
449.000000	2.264000   
449.500000	2.548000   
450.000000	2.035000   
450.500000	2.062000   
451.000000	2.338000   
451.500000	2.345000   
452.000000	2.133000   
452.500000	2.325000   
453.000000	2.385000   
453.500000	2.419000   
454.000000	2.330000   
454.500000	2.369000   
455.000000	2.422000   
455.500000	2.184000   
456.000000	2.207000   
456.500000	2.159000   
457.000000	2.299000   
457.500000	2.271000   
458.000000	2.175000   
458.500000	2.317000   
459.000000	2.042000   
459.500000	2.116000   
460.000000	2.373000   
460.500000	2.273000   
461.000000	2.231000   
461.500000	2.304000   
462.000000	2.261000   
462.500000	2.230000   
463.000000	2.243000   
463.500000	2.092000   
464.000000	2.033000   
464.500000	1.930000   
465.000000	2.009000   
465.500000	2.401000   
466.000000	2.300000   
466.500000	2.265000   
467.000000	2.200000   
467.500000	2.041000   
468.000000	2.373000   
468.500000	2.139000   
469.000000	1.957000   
469.500000	2.107000   
470.000000	2.027000   
470.500000	2.316000   
471.000000	2.360000   
471.500000	2.173000   
472.000000	2.000000   
472.500000	2.202000   
473.000000	2.091000   
473.500000	2.222000   
474.000000	2.134000   
474.500000	2.112000   
475.000000	2.380000   
475.500000	2.392000   
476.000000	2.326000   
476.500000	2.367000   
477.000000	2.422000   
477.500000	2.254000   
478.000000	2.415000   
478.500000	2.262000   
479.000000	2.569000   
479.500000	2.376000   
480.000000	2.268000   
480.500000	2.621000   
481.000000	2.587000   
481.500000	2.400000   
482.000000	2.398000   
482.500000	2.429000   
483.000000	2.538000   
483.500000	2.658000   
484.000000	2.513000   
484.500000	2.517000   
485.000000	2.524000   
485.500000	2.390000   
486.000000	2.509000   
486.500000	2.597000   
487.000000	2.743000   
487.500000	2.637000   
488.000000	2.695000   
488.500000	2.550000   
489.000000	2.479000   
489.500000	2.591000   
490.000000	2.634000   
490.500000	2.616000   
491.000000	2.508000   
491.500000	2.606000   
492.000000	2.528000   
492.500000	2.468000   
493.000000	2.684000   
493.500000	2.869000   
494.000000	2.623000   
494.500000	2.609000   
495.000000	2.552000   
495.500000	2.612000   
496.000000	2.518000   
496.500000	2.661000   
497.000000	2.476000   
497.500000	2.445000   
498.000000	2.737000   
498.500000	2.765000   
499.000000	2.608000   
499.500000	2.724000   
500.000000	2.749000   
500.500000	2.744000   
501.000000	2.899000   
501.500000	3.116000   
502.000000	3.183000   
502.500000	3.331000   
503.000000	3.977000   
503.500000	4.561000   
504.000000	5.445000   
504.500000	6.630000   
505.000000	8.378000   
505.500000	9.853000   
506.000000	12.547000  
506.500000	15.205000  
507.000000	19.774000  
507.500000	23.586000  
508.000000	29.559000  
508.500000	35.427000  
509.000000	43.189000  
509.500000	50.368000  
510.000000	62.538000  
510.500000	70.215000  
511.000000	82.956000  
511.500000	91.595000  
512.000000	106.396000 
512.500000	121.514000 
513.000000	138.105000 
513.500000	149.322000 
514.000000	168.066000 
514.500000	182.657000 
515.000000	202.307000 
515.500000	216.497000 
516.000000	234.849000 
516.500000	249.409000 
517.000000	269.207000 
517.500000	281.861000 
518.000000	298.409000 
518.500000	309.107000 
519.000000	319.345000 
519.500000	328.440000 
520.000000	333.793000 
520.500000	339.912000 
521.000000	342.660000 
521.500000	345.126000 
522.000000	346.557000 
522.500000	340.938000 
523.000000	340.965000 
523.500000	334.384000 
524.000000	326.867000 
524.500000	319.557000 
525.000000	309.416000 
525.500000	297.297000 
526.000000	284.285000 
526.500000	268.047000 
527.000000	254.360000 
527.500000	238.756000 
528.000000	222.381000 
528.500000	207.809000 
529.000000	189.773000 
529.500000	174.187000 
530.000000	156.752000 
530.500000	139.665000 
531.000000	124.139000 
531.500000	111.435000 
532.000000	98.300000  
532.500000	84.270000  
533.000000	70.718000  
533.500000	61.688000  
534.000000	53.479000  
534.500000	44.518000  
535.000000	37.789000  
535.500000	30.424000  
536.000000	24.802000  
536.500000	20.379000  
537.000000	16.460000  
537.500000	12.413000  
538.000000	9.380000   
538.500000	6.736000   
539.000000	5.598000   
539.500000	4.191000   
540.000000	3.232000   
540.500000	2.723000   
541.000000	2.687000   
541.500000	2.177000   
542.000000	2.146000   
542.500000	2.055000   
543.000000	2.044000   
543.500000	1.855000   
544.000000	1.809000   
544.500000	1.713000   
545.000000	1.794000   
545.500000	1.779000   
546.000000	1.717000   
546.500000	1.693000   
547.000000	1.614000   
547.500000	1.575000   
548.000000	1.451000   
548.500000	1.573000   

