PE FL                   SPECTRUM    ASCII       PEDS        1.60        
  -1
0159F2~1.SP
19/01/24
13:10:09.00
19/01/24
13:10:09.00


548.500000
1









LS45
320.00
10.00
10.00
SCAN
1
16
100
100
0
600
0
1
0
1
7
ON
550 545 
0 0 0
#HDR
-1
-1
#GR
NM
INT 
0.00002384185791015625
0.0
230.000000
0.500000
638
8
999.999000
0.449000
#DATA
230.000000	0.449000   
230.500000	0.492000   
231.000000	0.574000   
231.500000	0.751000   
232.000000	0.831000   
232.500000	0.748000   
233.000000	0.800000   
233.500000	0.779000   
234.000000	0.724000   
234.500000	0.882000   
235.000000	0.587000   
235.500000	0.752000   
236.000000	0.645000   
236.500000	0.694000   
237.000000	0.879000   
237.500000	0.781000   
238.000000	0.797000   
238.500000	0.736000   
239.000000	0.772000   
239.500000	0.733000   
240.000000	0.730000   
240.500000	0.695000   
241.000000	0.883000   
241.500000	0.840000   
242.000000	0.993000   
242.500000	1.025000   
243.000000	0.880000   
243.500000	0.889000   
244.000000	0.930000   
244.500000	0.667000   
245.000000	0.780000   
245.500000	0.937000   
246.000000	0.863000   
246.500000	1.083000   
247.000000	0.968000   
247.500000	0.903000   
248.000000	0.994000   
248.500000	1.025000   
249.000000	0.757000   
249.500000	0.766000   
250.000000	0.982000   
250.500000	1.122000   
251.000000	1.026000   
251.500000	0.882000   
252.000000	0.893000   
252.500000	0.909000   
253.000000	0.869000   
253.500000	0.845000   
254.000000	0.959000   
254.500000	0.931000   
255.000000	0.911000   
255.500000	1.134000   
256.000000	0.975000   
256.500000	1.024000   
257.000000	1.093000   
257.500000	0.883000   
258.000000	0.967000   
258.500000	0.988000   
259.000000	1.010000   
259.500000	1.164000   
260.000000	0.953000   
260.500000	0.993000   
261.000000	1.153000   
261.500000	1.182000   
262.000000	1.139000   
262.500000	1.280000   
263.000000	1.394000   
263.500000	1.158000   
264.000000	1.221000   
264.500000	1.292000   
265.000000	1.308000   
265.500000	1.402000   
266.000000	1.419000   
266.500000	1.268000   
267.000000	1.484000   
267.500000	1.346000   
268.000000	1.386000   
268.500000	1.296000   
269.000000	1.450000   
269.500000	1.581000   
270.000000	1.585000   
270.500000	1.669000   
271.000000	1.660000   
271.500000	1.593000   
272.000000	1.313000   
272.500000	1.494000   
273.000000	1.895000   
273.500000	1.965000   
274.000000	1.556000   
274.500000	1.747000   
275.000000	1.883000   
275.500000	1.959000   
276.000000	2.110000   
276.500000	2.017000   
277.000000	2.072000   
277.500000	2.023000   
278.000000	2.213000   
278.500000	2.232000   
279.000000	2.447000   
279.500000	2.635000   
280.000000	2.451000   
280.500000	2.606000   
281.000000	2.545000   
281.500000	2.440000   
282.000000	2.609000   
282.500000	2.402000   
283.000000	2.550000   
283.500000	2.831000   
284.000000	2.987000   
284.500000	3.193000   
285.000000	3.156000   
285.500000	3.407000   
286.000000	3.363000   
286.500000	3.393000   
287.000000	3.911000   
287.500000	3.858000   
288.000000	4.054000   
288.500000	3.662000   
289.000000	4.168000   
289.500000	4.243000   
290.000000	4.207000   
290.500000	4.537000   
291.000000	4.838000   
291.500000	4.778000   
292.000000	4.649000   
292.500000	4.860000   
293.000000	4.959000   
293.500000	5.070000   
294.000000	5.531000   
294.500000	5.600000   
295.000000	6.679000   
295.500000	6.462000   
296.000000	6.743000   
296.500000	7.500000   
297.000000	8.481999   
297.500000	10.406000  
298.000000	12.500000  
298.500000	15.780000  
299.000000	18.814000  
299.500000	25.249000  
300.000000	31.167000  
300.500000	39.775000  
301.000000	51.407000  
301.500000	62.976000  
302.000000	77.017000  
302.500000	93.923000  
303.000000	119.755000 
303.500000	140.695000 
304.000000	171.618000 
304.500000	197.939000 
305.000000	242.465000 
305.500000	279.723000 
306.000000	323.935000 
306.500000	373.847000 
307.000000	433.096000 
307.500000	488.947000 
308.000000	601.123000 
308.500000	613.263000 
309.000000	743.864000 
309.500000	751.623000 
310.000000	873.022000 
310.500000	884.846000 
311.000000	999.999000 
311.500000	999.999000 
312.000000	999.999000 
312.500000	999.999000 
313.000000	999.999000 
313.500000	999.999000 
314.000000	999.999000 
314.500000	999.999000 
315.000000	999.999000 
315.500000	999.999000 
316.000000	999.999000 
316.500000	999.999000 
317.000000	999.999000 
317.500000	999.999000 
318.000000	999.999000 
318.500000	999.999000 
319.000000	999.999000 
319.500000	999.999000 
320.000000	999.999000 
320.500000	999.999000 
321.000000	999.999000 
321.500000	999.999000 
322.000000	999.999000 
322.500000	987.111000 
323.000000	976.144000 
323.500000	847.915000 
324.000000	835.088000 
324.500000	703.951000 
325.000000	694.515000 
325.500000	581.602000 
326.000000	570.307000 
326.500000	456.568000 
327.000000	446.546000 
327.500000	395.644000 
328.000000	343.289000 
328.500000	295.683000 
329.000000	243.312000 
329.500000	207.614000 
330.000000	172.483000 
330.500000	145.101000 
331.000000	120.197000 
331.500000	96.653000  
332.000000	78.973000  
332.500000	65.018000  
333.000000	53.334000  
333.500000	45.128000  
334.000000	38.185000  
334.500000	33.073000  
335.000000	30.604000  
335.500000	26.973000  
336.000000	26.444000  
336.500000	25.806000  
337.000000	24.635000  
337.500000	25.976000  
338.000000	26.008000  
338.500000	27.580000  
339.000000	29.497000  
339.500000	31.315000  
340.000000	32.141000  
340.500000	33.251000  
341.000000	35.322000  
341.500000	38.823000  
342.000000	40.741000  
342.500000	42.816000  
343.000000	46.447000  
343.500000	49.834000  
344.000000	53.252000  
344.500000	57.074000  
345.000000	61.759000  
345.500000	63.343000  
346.000000	68.486000  
346.500000	69.524000  
347.000000	74.194999  
347.500000	80.485000  
348.000000	83.658000  
348.500000	86.069000  
349.000000	91.175000  
349.500000	95.305000  
350.000000	97.711000  
350.500000	100.794000 
351.000000	104.685000 
351.500000	107.378000 
352.000000	110.217000 
352.500000	110.815000 
353.000000	112.126000 
353.500000	113.435000 
354.000000	114.076000 
354.500000	115.388000 
355.000000	115.328000 
355.500000	116.048000 
356.000000	113.814000 
356.500000	114.536000 
357.000000	114.659000 
357.500000	111.324000 
358.000000	110.805000 
358.500000	109.749000 
359.000000	107.948000 
359.500000	104.837000 
360.000000	102.965000 
360.500000	99.476000  
361.000000	94.952000  
361.500000	92.505000  
362.000000	91.364999  
362.500000	89.950000  
363.000000	87.375000  
363.500000	82.890000  
364.000000	80.520000  
364.500000	79.126000  
365.000000	78.427000  
365.500000	73.474000  
366.000000	73.440000  
366.500000	71.063999  
367.000000	70.455000  
367.500000	69.580000  
368.000000	68.741000  
368.500000	67.756000  
369.000000	66.759000  
369.500000	65.715000  
370.000000	67.054000  
370.500000	66.391000  
371.000000	66.229000  
371.500000	66.200999  
372.000000	65.258000  
372.500000	65.062000  
373.000000	64.294000  
373.500000	65.159000  
374.000000	66.138000  
374.500000	66.773000  
375.000000	68.691000  
375.500000	70.241000  
376.000000	69.851000  
376.500000	70.372000  
377.000000	70.845000  
377.500000	71.264000  
378.000000	72.896000  
378.500000	72.616000  
379.000000	72.569999  
379.500000	74.283000  
380.000000	74.998000  
380.500000	76.621000  
381.000000	75.511000  
381.500000	78.191999  
382.000000	77.294000  
382.500000	78.003000  
383.000000	80.069000  
383.500000	79.874000  
384.000000	81.634000  
384.500000	81.842000  
385.000000	82.580000  
385.500000	82.662000  
386.000000	83.393000  
386.500000	84.974000  
387.000000	85.146000  
387.500000	85.854000  
388.000000	83.920000  
388.500000	83.696000  
389.000000	85.881000  
389.500000	87.168000  
390.000000	87.626000  
390.500000	87.418000  
391.000000	88.794000  
391.500000	89.339000  
392.000000	89.636000  
392.500000	87.912000  
393.000000	90.263000  
393.500000	90.056000  
394.000000	90.828000  
394.500000	91.649000  
395.000000	91.052000  
395.500000	92.355000  
396.000000	93.015000  
396.500000	91.383000  
397.000000	93.233000  
397.500000	93.310000  
398.000000	92.273000  
398.500000	92.143000  
399.000000	93.944999  
399.500000	95.102000  
400.000000	94.360000  
400.500000	94.756000  
401.000000	92.557000  
401.500000	94.912000  
402.000000	96.928000  
402.500000	94.697999  
403.000000	96.276000  
403.500000	97.592000  
404.000000	96.883000  
404.500000	95.440000  
405.000000	96.634000  
405.500000	97.096999  
406.000000	94.652000  
406.500000	96.402000  
407.000000	95.952000  
407.500000	94.688999  
408.000000	98.014000  
408.500000	97.596000  
409.000000	98.700000  
409.500000	96.075000  
410.000000	96.297000  
410.500000	96.867999  
411.000000	97.328000  
411.500000	95.878000  
412.000000	94.400000  
412.500000	96.560000  
413.000000	95.816999  
413.500000	97.071000  
414.000000	96.083000  
414.500000	95.586000  
415.000000	94.645000  
415.500000	94.299000  
416.000000	93.851000  
416.500000	94.876000  
417.000000	94.937000  
417.500000	92.977999  
418.000000	93.808000  
418.500000	91.063000  
419.000000	89.316999  
419.500000	88.872000  
420.000000	91.161000  
420.500000	90.503000  
421.000000	89.128000  
421.500000	90.180000  
422.000000	89.177000  
422.500000	87.783000  
423.000000	87.056000  
423.500000	86.304000  
424.000000	86.935000  
424.500000	86.327000  
425.000000	85.535000  
425.500000	84.331999  
426.000000	85.330000  
426.500000	84.632000  
427.000000	86.087999  
427.500000	85.793000  
428.000000	85.296000  
428.500000	84.672000  
429.000000	83.352999  
429.500000	85.194000  
430.000000	83.421000  
430.500000	81.628000  
431.000000	79.822999  
431.500000	79.655000  
432.000000	81.294000  
432.500000	80.161000  
433.000000	81.025000  
433.500000	78.812000  
434.000000	79.534000  
434.500000	79.924000  
435.000000	79.462000  
435.500000	77.903000  
436.000000	78.224000  
436.500000	77.184000  
437.000000	77.360000  
437.500000	78.114999  
438.000000	75.837999  
438.500000	76.090999  
439.000000	74.772000  
439.500000	75.400000  
440.000000	75.139000  
440.500000	75.747000  
441.000000	76.018000  
441.500000	75.037000  
442.000000	73.384000  
442.500000	74.139000  
443.000000	72.736999  
443.500000	71.563000  
444.000000	70.703999  
444.500000	71.534000  
445.000000	68.684000  
445.500000	69.186000  
446.000000	68.739000  
446.500000	69.258000  
447.000000	68.197000  
447.500000	69.818000  
448.000000	67.930000  
448.500000	67.897000  
449.000000	67.265000  
449.500000	67.703999  
450.000000	66.614999  
450.500000	64.565000  
451.000000	64.787000  
451.500000	64.036000  
452.000000	64.512000  
452.500000	63.663000  
453.000000	63.852000  
453.500000	62.372000  
454.000000	62.272000  
454.500000	61.361000  
455.000000	62.009000  
455.500000	60.693000  
456.000000	59.356000  
456.500000	58.927000  
457.000000	58.300000  
457.500000	59.171000  
458.000000	57.340000  
458.500000	56.616000  
459.000000	55.533000  
459.500000	55.471000  
460.000000	55.584000  
460.500000	55.618000  
461.000000	54.887000  
461.500000	55.206000  
462.000000	54.825000  
462.500000	52.603000  
463.000000	51.017000  
463.500000	51.270000  
464.000000	51.937000  
464.500000	51.986000  
465.000000	49.002000  
465.500000	48.766000  
466.000000	49.636000  
466.500000	49.039000  
467.000000	49.853000  
467.500000	47.707000  
468.000000	46.965000  
468.500000	46.555000  
469.000000	45.357000  
469.500000	46.225000  
470.000000	44.402000  
470.500000	44.900000  
471.000000	43.631000  
471.500000	43.921000  
472.000000	42.665000  
472.500000	42.790000  
473.000000	43.202000  
473.500000	42.822000  
474.000000	42.660000  
474.500000	42.199000  
475.000000	41.758000  
475.500000	41.223000  
476.000000	42.089000  
476.500000	41.060000  
477.000000	40.614000  
477.500000	42.408000  
478.000000	39.714000  
478.500000	39.141000  
479.000000	39.423000  
479.500000	37.802000  
480.000000	37.228000  
480.500000	38.648000  
481.000000	38.172000  
481.500000	37.220000  
482.000000	37.361000  
482.500000	36.905000  
483.000000	37.075000  
483.500000	35.992000  
484.000000	35.572000  
484.500000	35.698000  
485.000000	35.816000  
485.500000	33.612000  
486.000000	33.106000  
486.500000	34.918000  
487.000000	34.609000  
487.500000	34.172000  
488.000000	33.547000  
488.500000	32.587000  
489.000000	32.904000  
489.500000	32.771000  
490.000000	31.941000  
490.500000	31.994000  
491.000000	30.152000  
491.500000	31.315000  
492.000000	30.786000  
492.500000	30.702000  
493.000000	29.364000  
493.500000	29.742000  
494.000000	29.389000  
494.500000	29.540000  
495.000000	29.998000  
495.500000	29.405000  
496.000000	28.523000  
496.500000	28.457000  
497.000000	27.399000  
497.500000	27.688000  
498.000000	27.610000  
498.500000	26.842000  
499.000000	26.480000  
499.500000	27.208000  
500.000000	26.704000  
500.500000	25.684000  
501.000000	25.762000  
501.500000	25.149000  
502.000000	24.083000  
502.500000	24.240000  
503.000000	23.749000  
503.500000	24.166000  
504.000000	24.806000  
504.500000	23.925000  
505.000000	23.293000  
505.500000	23.173000  
506.000000	22.410000  
506.500000	22.486000  
507.000000	22.774000  
507.500000	21.745000  
508.000000	21.918000  
508.500000	21.733000  
509.000000	21.643000  
509.500000	21.195000  
510.000000	20.652000  
510.500000	21.114000  
511.000000	21.721000  
511.500000	20.616000  
512.000000	19.900000  
512.500000	20.789000  
513.000000	20.111000  
513.500000	19.825000  
514.000000	20.430000  
514.500000	19.438000  
515.000000	19.040000  
515.500000	18.642000  
516.000000	19.114000  
516.500000	18.550000  
517.000000	18.244000  
517.500000	18.563000  
518.000000	17.530000  
518.500000	17.912000  
519.000000	17.037000  
519.500000	17.112000  
520.000000	17.034000  
520.500000	17.871000  
521.000000	17.583000  
521.500000	17.006000  
522.000000	17.210000  
522.500000	16.113000  
523.000000	15.309000  
523.500000	16.043000  
524.000000	15.810000  
524.500000	16.129000  
525.000000	15.802000  
525.500000	15.444000  
526.000000	15.196000  
526.500000	15.504000  
527.000000	14.913000  
527.500000	14.668000  
528.000000	14.125000  
528.500000	14.169000  
529.000000	13.740000  
529.500000	13.748000  
530.000000	14.165000  
530.500000	13.335000  
531.000000	12.710000  
531.500000	12.795000  
532.000000	13.374000  
532.500000	12.861000  
533.000000	12.225000  
533.500000	12.156000  
534.000000	12.420000  
534.500000	12.091000  
535.000000	12.081000  
535.500000	12.109000  
536.000000	12.407000  
536.500000	11.684000  
537.000000	10.832000  
537.500000	10.728000  
538.000000	10.619000  
538.500000	10.307000  
539.000000	10.865000  
539.500000	10.751000  
540.000000	10.300000  
540.500000	10.273000  
541.000000	10.054000  
541.500000	10.689000  
542.000000	9.807000   
542.500000	9.760999   
543.000000	9.195000   
543.500000	9.792999   
544.000000	9.590999   
544.500000	9.448000   
545.000000	9.667999   
545.500000	9.287000   
546.000000	9.349000   
546.500000	8.800000   
547.000000	8.896000   
547.500000	9.192000   
548.000000	8.484000   
548.500000	8.813000   

