PE FL                   SPECTRUM    ASCII       PEDS        1.60        
  -1
01450F~1.SP
19/01/24
13:30:30.00
19/01/24
13:30:30.00


548.500000
1









LS45
455.00
10.00
10.00
SCAN
1
16
100
100
0
600
0
1
0
1
7
ON
550 545 
0 0 0
#HDR
-1
-1
#GR
NM
INT 
0.00002384185791015625
0.0
230.000000
0.500000
638
8
993.293000
0.054000
#DATA
230.000000	0.246000   
230.500000	0.117000   
231.000000	0.147000   
231.500000	0.105000   
232.000000	0.132000   
232.500000	0.104000   
233.000000	0.082000   
233.500000	0.117000   
234.000000	0.123000   
234.500000	0.165000   
235.000000	0.105000   
235.500000	0.078000   
236.000000	0.070000   
236.500000	0.054000   
237.000000	0.105000   
237.500000	0.103000   
238.000000	0.087999   
238.500000	0.119000   
239.000000	0.103000   
239.500000	0.152000   
240.000000	0.107000   
240.500000	0.110000   
241.000000	0.150000   
241.500000	0.169000   
242.000000	0.114000   
242.500000	0.092000   
243.000000	0.087999   
243.500000	0.103000   
244.000000	0.162000   
244.500000	0.131000   
245.000000	0.098000   
245.500000	0.148000   
246.000000	0.160000   
246.500000	0.132000   
247.000000	0.150000   
247.500000	0.136000   
248.000000	0.110000   
248.500000	0.157000   
249.000000	0.197000   
249.500000	0.151000   
250.000000	0.159000   
250.500000	0.188000   
251.000000	0.153000   
251.500000	0.150000   
252.000000	0.154000   
252.500000	0.198000   
253.000000	0.191000   
253.500000	0.188000   
254.000000	0.216000   
254.500000	0.194000   
255.000000	0.195000   
255.500000	0.187000   
256.000000	0.167000   
256.500000	0.193000   
257.000000	0.197000   
257.500000	0.198000   
258.000000	0.173000   
258.500000	0.231000   
259.000000	0.178000   
259.500000	0.204000   
260.000000	0.271000   
260.500000	0.224000   
261.000000	0.204000   
261.500000	0.172000   
262.000000	0.166000   
262.500000	0.171000   
263.000000	0.120000   
263.500000	0.144000   
264.000000	0.126000   
264.500000	0.128000   
265.000000	0.120000   
265.500000	0.154000   
266.000000	0.159000   
266.500000	0.149000   
267.000000	0.102000   
267.500000	0.151000   
268.000000	0.188000   
268.500000	0.154000   
269.000000	0.196000   
269.500000	0.180000   
270.000000	0.114000   
270.500000	0.149000   
271.000000	0.103000   
271.500000	0.111000   
272.000000	0.121000   
272.500000	0.162000   
273.000000	0.166000   
273.500000	0.120000   
274.000000	0.130000   
274.500000	0.138000   
275.000000	0.185000   
275.500000	0.154000   
276.000000	0.148000   
276.500000	0.132000   
277.000000	0.113000   
277.500000	0.188000   
278.000000	0.165000   
278.500000	0.157000   
279.000000	0.192000   
279.500000	0.185000   
280.000000	0.151000   
280.500000	0.148000   
281.000000	0.267000   
281.500000	0.168000   
282.000000	0.138000   
282.500000	0.185000   
283.000000	0.164000   
283.500000	0.199000   
284.000000	0.235000   
284.500000	0.241000   
285.000000	0.155000   
285.500000	0.195000   
286.000000	0.196000   
286.500000	0.240000   
287.000000	0.204000   
287.500000	0.216000   
288.000000	0.227000   
288.500000	0.210000   
289.000000	0.224000   
289.500000	0.245000   
290.000000	0.229000   
290.500000	0.181000   
291.000000	0.205000   
291.500000	0.265000   
292.000000	0.243000   
292.500000	0.156000   
293.000000	0.163000   
293.500000	0.158000   
294.000000	0.262000   
294.500000	0.252000   
295.000000	0.237000   
295.500000	0.212000   
296.000000	0.228000   
296.500000	0.276000   
297.000000	0.206000   
297.500000	0.227000   
298.000000	0.220000   
298.500000	0.197000   
299.000000	0.193000   
299.500000	0.182000   
300.000000	0.249000   
300.500000	0.191000   
301.000000	0.186000   
301.500000	0.239000   
302.000000	0.309000   
302.500000	0.240000   
303.000000	0.248000   
303.500000	0.259000   
304.000000	0.264000   
304.500000	0.306000   
305.000000	0.289000   
305.500000	0.265000   
306.000000	0.258000   
306.500000	0.376000   
307.000000	0.308000   
307.500000	0.305000   
308.000000	0.338000   
308.500000	0.302000   
309.000000	0.232000   
309.500000	0.288000   
310.000000	0.299000   
310.500000	0.313000   
311.000000	0.305000   
311.500000	0.307000   
312.000000	0.310000   
312.500000	0.258000   
313.000000	0.299000   
313.500000	0.250000   
314.000000	0.297000   
314.500000	0.362000   
315.000000	0.355000   
315.500000	0.445000   
316.000000	0.350000   
316.500000	0.304000   
317.000000	0.354000   
317.500000	0.344000   
318.000000	0.324000   
318.500000	0.423000   
319.000000	0.329000   
319.500000	0.408000   
320.000000	0.323000   
320.500000	0.314000   
321.000000	0.390000   
321.500000	0.300000   
322.000000	0.334000   
322.500000	0.359000   
323.000000	0.397000   
323.500000	0.405000   
324.000000	0.402000   
324.500000	0.407000   
325.000000	0.332000   
325.500000	0.391000   
326.000000	0.433000   
326.500000	0.369000   
327.000000	0.345000   
327.500000	0.351000   
328.000000	0.364000   
328.500000	0.365000   
329.000000	0.505000   
329.500000	0.579000   
330.000000	0.521000   
330.500000	0.398000   
331.000000	0.469000   
331.500000	0.421000   
332.000000	0.482000   
332.500000	0.542000   
333.000000	0.434000   
333.500000	0.408000   
334.000000	0.475000   
334.500000	0.461000   
335.000000	0.489000   
335.500000	0.457000   
336.000000	0.458000   
336.500000	0.498000   
337.000000	0.426000   
337.500000	0.412000   
338.000000	0.579000   
338.500000	0.479000   
339.000000	0.476000   
339.500000	0.444000   
340.000000	0.392000   
340.500000	0.509000   
341.000000	0.529000   
341.500000	0.503000   
342.000000	0.558000   
342.500000	0.319000   
343.000000	0.381000   
343.500000	0.522000   
344.000000	0.450000   
344.500000	0.504000   
345.000000	0.458000   
345.500000	0.549000   
346.000000	0.515000   
346.500000	0.540000   
347.000000	0.523000   
347.500000	0.497000   
348.000000	0.525000   
348.500000	0.534000   
349.000000	0.490000   
349.500000	0.522000   
350.000000	0.557000   
350.500000	0.566999   
351.000000	0.551000   
351.500000	0.529000   
352.000000	0.612000   
352.500000	0.537000   
353.000000	0.543000   
353.500000	0.683000   
354.000000	0.711000   
354.500000	0.616000   
355.000000	0.548000   
355.500000	0.548000   
356.000000	0.653000   
356.500000	0.544000   
357.000000	0.538000   
357.500000	0.526000   
358.000000	0.575000   
358.500000	0.643000   
359.000000	0.640000   
359.500000	0.590000   
360.000000	0.706000   
360.500000	0.635000   
361.000000	0.643000   
361.500000	0.570000   
362.000000	0.587000   
362.500000	0.552000   
363.000000	0.735000   
363.500000	0.615000   
364.000000	0.606000   
364.500000	0.623000   
365.000000	0.599000   
365.500000	0.559000   
366.000000	0.663000   
366.500000	0.613000   
367.000000	0.696000   
367.500000	0.708000   
368.000000	0.674000   
368.500000	0.725000   
369.000000	0.713000   
369.500000	0.672000   
370.000000	0.683000   
370.500000	0.634000   
371.000000	0.606000   
371.500000	0.702000   
372.000000	0.795000   
372.500000	0.704000   
373.000000	0.835000   
373.500000	0.774000   
374.000000	0.858000   
374.500000	0.738000   
375.000000	0.844000   
375.500000	0.633000   
376.000000	0.690999   
376.500000	0.848000   
377.000000	0.763000   
377.500000	0.812000   
378.000000	0.831000   
378.500000	0.836000   
379.000000	0.865000   
379.500000	0.847000   
380.000000	0.878000   
380.500000	0.857000   
381.000000	0.860000   
381.500000	0.894000   
382.000000	0.967000   
382.500000	0.896000   
383.000000	0.904000   
383.500000	0.969000   
384.000000	0.876000   
384.500000	0.942999   
385.000000	0.898000   
385.500000	0.881000   
386.000000	0.958000   
386.500000	0.830000   
387.000000	0.980000   
387.500000	0.877000   
388.000000	0.823000   
388.500000	0.891000   
389.000000	0.952000   
389.500000	0.946000   
390.000000	0.833000   
390.500000	1.133000   
391.000000	1.074000   
391.500000	0.997000   
392.000000	1.108000   
392.500000	1.040000   
393.000000	1.157000   
393.500000	1.155000   
394.000000	1.096000   
394.500000	1.184000   
395.000000	1.092000   
395.500000	1.070000   
396.000000	1.181000   
396.500000	1.199000   
397.000000	1.207000   
397.500000	1.144000   
398.000000	1.356000   
398.500000	1.230000   
399.000000	1.267000   
399.500000	1.366000   
400.000000	1.390000   
400.500000	1.266000   
401.000000	1.315000   
401.500000	1.476000   
402.000000	1.438000   
402.500000	1.472000   
403.000000	1.524000   
403.500000	1.387000   
404.000000	1.604000   
404.500000	1.858000   
405.000000	1.803000   
405.500000	1.694000   
406.000000	1.605000   
406.500000	1.839000   
407.000000	1.812000   
407.500000	1.911000   
408.000000	1.666000   
408.500000	1.756000   
409.000000	1.953000   
409.500000	1.999000   
410.000000	1.994000   
410.500000	2.110000   
411.000000	2.000000   
411.500000	2.047000   
412.000000	2.186000   
412.500000	2.077000   
413.000000	2.053000   
413.500000	2.224000   
414.000000	2.426000   
414.500000	2.314000   
415.000000	2.374000   
415.500000	2.308000   
416.000000	2.399000   
416.500000	2.545000   
417.000000	2.622000   
417.500000	2.788000   
418.000000	2.606000   
418.500000	2.669000   
419.000000	2.907000   
419.500000	2.857000   
420.000000	3.153000   
420.500000	2.889000   
421.000000	3.329000   
421.500000	3.351000   
422.000000	3.227000   
422.500000	3.356000   
423.000000	3.258000   
423.500000	3.461000   
424.000000	3.280000   
424.500000	3.315000   
425.000000	3.385000   
425.500000	3.213000   
426.000000	3.516000   
426.500000	3.930000   
427.000000	3.734000   
427.500000	3.725000   
428.000000	3.739000   
428.500000	3.731000   
429.000000	4.058000   
429.500000	4.279000   
430.000000	4.294000   
430.500000	4.665000   
431.000000	5.316000   
431.500000	6.237000   
432.000000	7.517000   
432.500000	8.811000   
433.000000	11.537000  
433.500000	15.043000  
434.000000	20.486000  
434.500000	26.158000  
435.000000	35.646000  
435.500000	44.379000  
436.000000	58.121000  
436.500000	70.403000  
437.000000	88.351000  
437.500000	106.708000 
438.000000	134.963000 
438.500000	158.125000 
439.000000	192.011000 
439.500000	221.891000 
440.000000	259.826000 
440.500000	301.965000 
441.000000	351.529000 
441.500000	392.941000 
442.000000	438.250000 
442.500000	484.262000 
443.000000	529.853000 
443.500000	580.870000 
444.000000	639.245000 
444.500000	688.196000 
445.000000	725.436000 
445.500000	770.929000 
446.000000	805.391000 
446.500000	846.442000 
447.000000	881.155000 
447.500000	915.153000 
448.000000	931.124000 
448.500000	957.761000 
449.000000	973.124000 
449.500000	982.803000 
450.000000	986.232999 
450.500000	992.397000 
451.000000	993.293000 
451.500000	988.586000 
452.000000	982.979000 
452.500000	974.722000 
453.000000	954.023000 
453.500000	924.672000 
454.000000	906.420000 
454.500000	876.207000 
455.000000	850.077000 
455.500000	811.600000 
456.000000	774.702000 
456.500000	724.300000 
457.000000	692.437000 
457.500000	644.823000 
458.000000	597.856000 
458.500000	551.376000 
459.000000	505.563000 
459.500000	452.785000 
460.000000	410.174000 
460.500000	370.576000 
461.000000	320.871000 
461.500000	288.358000 
462.000000	246.271000 
462.500000	210.933000 
463.000000	178.900000 
463.500000	155.291000 
464.000000	124.832000 
464.500000	106.863000 
465.000000	84.160000  
465.500000	71.306000  
466.000000	56.481000  
466.500000	48.118000  
467.000000	37.502000  
467.500000	30.586000  
468.000000	22.600000  
468.500000	18.665000  
469.000000	14.414000  
469.500000	11.645000  
470.000000	9.496000   
470.500000	8.808000   
471.000000	8.179000   
471.500000	7.776000   
472.000000	7.159000   
472.500000	7.238000   
473.000000	6.830000   
473.500000	7.085000   
474.000000	7.248000   
474.500000	6.886000   
475.000000	7.051000   
475.500000	7.177000   
476.000000	7.042000   
476.500000	7.067000   
477.000000	7.188000   
477.500000	7.201000   
478.000000	7.525000   
478.500000	7.576000   
479.000000	7.773000   
479.500000	8.287000   
480.000000	7.532000   
480.500000	8.069000   
481.000000	8.068000   
481.500000	8.178000   
482.000000	8.548999   
482.500000	8.682000   
483.000000	8.650000   
483.500000	8.464000   
484.000000	8.577999   
484.500000	8.715000   
485.000000	8.569000   
485.500000	9.160000   
486.000000	9.199000   
486.500000	9.191000   
487.000000	9.247000   
487.500000	9.438000   
488.000000	9.760000   
488.500000	9.705000   
489.000000	9.464000   
489.500000	9.595000   
490.000000	9.750999   
490.500000	9.756000   
491.000000	10.411000  
491.500000	10.066000  
492.000000	9.879000   
492.500000	10.335000  
493.000000	10.805000  
493.500000	10.541000  
494.000000	10.693000  
494.500000	10.740000  
495.000000	10.590000  
495.500000	10.901000  
496.000000	10.522000  
496.500000	10.727000  
497.000000	10.650000  
497.500000	10.965000  
498.000000	10.793000  
498.500000	10.950000  
499.000000	10.984000  
499.500000	11.247000  
500.000000	11.521000  
500.500000	11.016000  
501.000000	11.308000  
501.500000	11.316000  
502.000000	11.380000  
502.500000	11.288000  
503.000000	11.346000  
503.500000	10.911000  
504.000000	11.532000  
504.500000	11.519000  
505.000000	11.122000  
505.500000	10.971000  
506.000000	11.781000  
506.500000	11.585000  
507.000000	11.801000  
507.500000	12.021000  
508.000000	11.916000  
508.500000	11.685000  
509.000000	11.397000  
509.500000	11.083000  
510.000000	11.785000  
510.500000	11.510000  
511.000000	12.036000  
511.500000	12.032000  
512.000000	11.935000  
512.500000	11.948000  
513.000000	11.815000  
513.500000	11.933000  
514.000000	11.891000  
514.500000	12.133000  
515.000000	11.946000  
515.500000	12.224000  
516.000000	12.076000  
516.500000	12.561000  
517.000000	11.972000  
517.500000	12.245000  
518.000000	12.258000  
518.500000	12.340000  
519.000000	12.358000  
519.500000	12.282000  
520.000000	12.629000  
520.500000	12.379000  
521.000000	12.646000  
521.500000	13.041000  
522.000000	12.838000  
522.500000	13.310000  
523.000000	13.149000  
523.500000	13.223000  
524.000000	13.204000  
524.500000	13.580000  
525.000000	14.012000  
525.500000	13.627000  
526.000000	13.796000  
526.500000	14.108000  
527.000000	14.235000  
527.500000	13.641000  
528.000000	13.647000  
528.500000	14.342000  
529.000000	13.791000  
529.500000	14.089000  
530.000000	13.976000  
530.500000	14.314000  
531.000000	13.881000  
531.500000	14.265000  
532.000000	14.220000  
532.500000	13.500000  
533.000000	13.575000  
533.500000	13.959000  
534.000000	13.752000  
534.500000	13.685000  
535.000000	13.573000  
535.500000	13.117000  
536.000000	12.705000  
536.500000	12.409000  
537.000000	12.082000  
537.500000	12.249000  
538.000000	11.501000  
538.500000	11.622000  
539.000000	11.352000  
539.500000	10.831000  
540.000000	10.811000  
540.500000	11.300000  
541.000000	10.504000  
541.500000	10.229000  
542.000000	10.001000  
542.500000	9.573000   
543.000000	9.721000   
543.500000	9.285000   
544.000000	9.257000   
544.500000	9.147000   
545.000000	8.744999   
545.500000	8.218000   
546.000000	8.526000   
546.500000	8.176000   
547.000000	8.167999   
547.500000	7.670000   
548.000000	7.936000   
548.500000	7.821000   

